#Wave		#Intensity
4001.644531	5.536806
4000.500000	4606.446777
3999.354492	9213.306641
3998.209961	13745.377930
3997.064453	18614.978516
3995.918945	22899.753906
3994.772461	27391.986328
3993.626953	31510.744141
3992.480469	36243.578125
3991.333984	40123.656250
3990.187500	44111.320313
3989.040039	48267.222656
3987.893555	52427.730469
3986.746094	31765.947266
3985.598633	18431.724609
3984.451172	22567.732422
3983.302734	25678.349609
3982.154297	29662.175781
3981.006836	21031.505859
3979.857422	-7.351161
3978.708984	3082.418213
3977.560547	6148.138672
3976.411133	9465.188477
3975.261719	13098.322266
3974.112305	16786.835938
3972.961914	19875.238281
3971.811523	23500.544922
3970.662109	25460.603516
3969.511719	28298.339844
3968.360352	31900.621094
3967.209961	34932.667969
3966.058594	37511.351563
3964.907227	39669.464844
3963.755859	43454.972656
3962.604492	45572.417969
3961.452148	48595.121094
3960.299805	51127.546875
3959.147461	54524.109375
3957.995117	56286.035156
3956.841797	56614.312500
3955.689453	39623.140625
3954.536133	38993.734375
3953.382813	40765.570313
3952.228516	44103.273438
3951.075195	45559.488281
3949.920898	48445.437500
3948.766602	50748.812500
3947.612305	53156.773438
3946.458008	55401.238281
3945.302734	55824.250000
3944.147461	58457.355469
3942.992188	60034.429688
3941.836914	62880.097656
3940.680664	64123.175781
3939.525391	65854.968750
3938.369141	67499.523438
3937.211914	69320.906250
3936.055664	70838.500000
3934.898438	73402.406250
3933.742188	74518.054688
3932.584961	75807.750000
3931.426758	77005.968750
3930.269531	78982.742188
3929.111328	80829.695313
3927.953125	81600.320313
3926.794922	83397.804688
3925.636719	84657.476563
3924.477539	86134.203125
3923.319336	87295.093750
3922.160156	88988.546875
3921.000000	90207.554688
3919.840820	90202.343750
3918.680664	91099.367188
3917.520508	93410.273438
3916.360352	93620.304688
3915.200195	94589.750000
3914.040039	96068.664063
3912.878906	96348.210938
3911.717773	98505.187500
3910.556641	99215.093750
3909.394531	98606.937500
3908.233398	101263.679688
3907.071289	100728.710938
3905.909180	101342.210938
3904.746094	101596.914063
3903.583984	103225.015625
3902.420898	102598.414063
3901.257813	104369.648438
3900.094727	104596.101563
3898.931641	105685.578125
3897.767578	105311.851563
3896.603516	105440.812500
3895.439453	106701.718750
3894.275391	107647.046875
3893.111328	107714.859375
3891.946289	107932.406250
3890.781250	109005.421875
3889.616211	108927.578125
3888.451172	109857.921875
3887.285156	109465.171875
3886.119141	110584.859375
3884.953125	110332.718750
3883.787109	110227.476563
3882.620117	110631.929688
3881.454102	111202.515625
3880.287109	110699.617188
3879.120117	110794.617188
3877.952148	111468.375000
3876.785156	110936.695313
3875.617188	111326.929688
3874.449219	110932.625000
3873.281250	112202.710938
3872.112305	111567.750000
3870.944336	110560.429688
3869.775391	110929.070313
3868.606445	111413.375000
3867.436523	110653.851563
3866.267578	110145.476563
3865.097656	111111.140625
3863.927734	110415.281250
3862.757813	110663.562500
3861.587891	110561.210938
3860.416992	110409.757813
3859.246094	110470.046875
3858.075195	109967.218750
3856.904297	108545.312500
3855.732422	108130.085938
3854.560547	107908.281250
3853.388672	108887.031250
3852.216797	107610.421875
3851.044922	108812.195313
3849.872070	107653.164063
3848.699219	107089.609375
3847.526367	106916.828125
3846.353516	106131.179688
3845.179688	106309.671875
3844.005859	104770.242188
3842.832031	105030.367188
3841.658203	103814.265625
3840.484375	103943.968750
3839.309570	102930.257813
3838.134766	103011.039063
3836.959961	102832.648438
3835.785156	102940.015625
3834.609375	102135.429688
3833.434570	100305.320313
3832.258789	99591.054688
3831.082031	99962.398438
3829.906250	99617.226563
3828.729492	97686.312500
3827.552734	97666.210938
3826.375977	96713.695313
3825.199219	96832.429688
3824.021484	95772.742188
3822.844727	95147.773438
3821.666992	94188.226563
3820.489258	92695.421875
3819.310547	92390.265625
3818.131836	91982.835938
3816.954102	91938.390625
3815.774414	90418.953125
3814.595703	90160.054688
3813.416992	89441.437500
3812.237305	88345.734375
3811.057617	88147.414063
3809.877930	87246.492188
3808.697266	86765.812500
3807.516602	85481.554688
3806.336914	84864.570313
3805.155273	83577.046875
3803.974609	82984.437500
3802.792969	81826.078125
3801.612305	80854.851563
3800.430664	80653.554688
3799.248047	79495.906250
3798.066406	79105.218750
3796.883789	77594.023438
3795.701172	76849.406250
3794.518555	76298.296875
3793.335938	75412.453125
3792.152344	73946.492188
3790.968750	73084.523438
3789.785156	72116.695313
3788.601563	72246.921875
3787.417969	71025.585938
3786.233398	69964.398438
3785.048828	69477.726563
3783.864258	68516.664063
3782.678711	66998.679688
3781.494141	66627.796875
3780.308594	65360.738281
3779.123047	63025.886719
3777.937500	62879.074219
3776.750977	62585.191406
3775.564453	62098.777344
3774.377930	61203.031250
3773.191406	58720.718750
3772.004883	58522.082031
3770.817383	56772.589844
3769.629883	56773.238281
3768.442383	56293.898438
3767.254883	54716.160156
3766.066406	53532.062500
3764.878906	53012.195313
3763.690430	51326.976563
3762.500977	51274.335938
3761.312500	49189.808594
3760.123047	49092.957031
3758.933594	47988.214844
3757.744141	46929.140625
3756.554688	45634.289063
3755.364258	44422.515625
3754.173828	43370.226563
3752.983398	42769.351563
3751.792969	41689.628906
3750.602539	40924.953125
3749.411133	39223.628906
3748.219727	39044.320313
3747.028320	38212.679688
3745.835938	36829.156250
3744.644531	35612.902344
3743.452148	34757.484375
3742.259766	34102.128906
3741.067383	33718.066406
3739.874023	33279.718750
3738.680664	31757.005859
3737.487305	29322.476563
3736.293945	28768.765625
3735.100586	28168.291016
3733.906250	27863.839844
3732.711914	26371.847656
3731.517578	25298.429688
3730.323242	24520.001953
3729.127930	23751.187500
3727.932617	22633.029297
3726.737305	22236.654297
3725.541992	21261.113281
3724.345703	19848.244141
3723.150391	19419.169922
3721.954102	17750.392578
3720.757813	17438.605469
3719.560547	16896.769531
3718.364258	16276.964844
3717.166992	15481.776367
3715.969727	14263.685547
3714.771484	14081.465820
3713.574219	13318.531250
3712.375977	11998.889648
3711.177734	10924.812500
3709.979492	10653.240234
3708.780273	10238.277344
3707.582031	10081.914063
3706.382813	8475.134766
3705.183594	8287.777344
3703.983398	8288.806641
3702.784180	7279.431641
3701.583984	6529.660645
3700.383789	6313.024414
3699.182617	5678.928223
3697.982422	4864.408691
3696.781250	3447.686768
3695.580078	3224.032471
3694.378906	3803.687988
3693.177734	4156.409668
3691.975586	2336.686523
3690.773438	1998.668335
3689.571289	1336.640259
3688.369141	1490.198975
3687.166016	1215.150879
3685.962891	1724.196777
3684.759766	648.180359
3683.556641	624.350952
3682.352539	-62.072319
3681.149414	152.343536
3679.945313	858.883301
3678.740234	996.488037
3677.536133	583.572632
3676.331055	-312.439789
3675.126953	474.134399
3673.920898	121.311050
3672.715820	104.339386
3671.510742	557.197021
3670.304688	-299.815125
3669.098633	-6.825753
3667.891602	19.376797
3666.685547	-26.976349
3665.478516	994.426392
3664.271484	254.316223
3663.064453	155.928177
3661.857422	382.184021
3660.649414	1172.434692
3659.441406	457.364532
3658.233398	410.642914
3657.025391	67.782318
3655.816406	195.862930
3654.607422	518.146545
3653.398438	1030.393311
3652.189453	1602.331543
3650.980469	2159.563477
3649.770508	1562.777344
3648.560547	1947.713623
3647.350586	1281.097778
3646.139648	653.501465
3644.929688	1220.551758
3643.718750	2261.857422
3642.507813	2031.418579
3641.295898	783.225769
3640.084961	867.435547
3638.873047	594.434143
3637.661133	-8.077091
3636.449219	-698.629089
3635.236328	173.971893
3634.023438	455.101166
3632.810547	1245.757080
3631.597656	948.593567
3630.384766	231.795181
3629.170898	551.572449
3627.957031	937.808899
3626.743164	288.780853
3625.529297	-208.985870
3624.314453	-263.766876
3623.099609	540.552612
3621.884766	-228.815994
3620.669922	-54.786915
3619.454102	697.566101
3618.239258	66.931023
3617.023438	16.828167
3615.806641	220.041245
3614.590820	-231.019073
3613.374023	827.003967
3612.157227	769.963196
3610.940430	488.033447
3609.723633	322.264069
3608.505859	257.833527
3607.288086	504.575165
3606.070313	668.161621
3604.852539	488.046234
3603.633789	834.047852
3602.415039	79.386497
3601.196289	1931.295044
3599.977539	986.380981
3598.758789	988.344849
3597.539063	905.025269
3596.319336	1817.117310
3595.099609	1508.788818
3593.878906	1459.640381
3592.659180	594.883118
3591.438477	2289.554199
3590.217773	1728.292725
3588.996094	1432.340088
3587.775391	1414.619629
3586.553711	2022.140015
3585.332031	1564.739136
3584.109375	2291.081055
3582.887695	1848.956543
3581.665039	3332.503418
3580.442383	3238.445068
3579.219727	3421.880615
3577.996094	3710.619629
3576.773438	3982.686768
3575.549805	4247.606445
3574.325195	4129.583496
3573.101563	5314.456543
3571.876953	5346.339355
3570.652344	4630.446777
3569.427734	5837.217773
3568.203125	5649.091797
3566.977539	6366.196777
3565.752930	5295.751465
3564.526367	6688.590820
3563.300781	6787.785645
3562.075195	7683.717773
3560.848633	6970.131348
3559.622070	6040.288574
3558.395508	7904.157227
3557.167969	7767.898926
3555.940430	8234.200195
3554.712891	9321.087891
3553.485352	9016.309570
3552.257813	10177.049805
3551.029297	9928.083984
3549.800781	10289.292969
3548.572266	10810.702148
3547.343750	11168.713867
3546.114258	11438.433594
3544.884766	11182.940430
3543.655273	11976.259766
3542.425781	12063.415039
3541.195313	12741.342773
3539.965820	13250.091797
3538.734375	13751.715820
3537.503906	14068.020508
3536.273438	13648.570313
3535.041992	15009.416992
3533.810547	14964.405273
3532.579102	15375.652344
3531.346680	16317.815430
3530.115234	16256.960938
3528.882813	16475.417969
3527.650391	16577.726563
3526.416992	17060.562500
3525.184570	17135.361328
3523.951172	17706.109375
3522.717773	18375.457031
3521.483398	18989.154297
3520.250000	19288.257813
3519.015625	19513.634766
3517.781250	20311.505859
3516.545898	20628.548828
3515.311523	20629.216797
3514.076172	20870.070313
3512.840820	21075.873047
3511.605469	21293.142578
3510.369141	21794.886719
3509.133789	22229.175781
3507.897461	22365.355469
3506.660156	22698.896484
3505.423828	22997.429688
3504.186523	22852.519531
3502.949219	23200.048828
3501.711914	23659.939453
3500.474609	23999.802734
3499.236328	24381.181641
3497.998047	24646.662109
3496.759766	24671.070313
3495.521484	25041.953125
3494.282227	25103.154297
3493.042969	25331.021484
3491.803711	25588.347656
3490.564453	25624.960938
3489.324219	25543.781250
3488.084961	26030.416016
3486.844727	25919.353516
3485.603516	26422.214844
3484.363281	26577.453125
3483.122070	26711.646484
3481.880859	26722.072266
3480.639648	26707.429688
3479.397461	26818.736328
3478.156250	27110.275391
3476.914063	27239.792969
3475.671875	27478.953125
3474.428711	27244.314453
3473.186523	27392.976563
3471.943359	27629.121094
3470.700195	27741.486328
3469.456055	27856.871094
3468.212891	28111.806641
3466.968750	28166.693359
3465.724609	27957.285156
3464.479492	28096.457031
3463.235352	28381.054688
3461.990234	28311.039063
3460.745117	28683.617188
3459.499023	28625.394531
3458.253906	28913.158203
3457.007813	28864.583984
3455.761719	29336.458984
3454.515625	29437.820313
3453.268555	29572.105469
3452.021484	29600.777344
3450.775391	29469.718750
3449.527344	29808.589844
3448.280273	30135.902344
3447.032227	30275.517578
3445.784180	30551.937500
3444.536133	30378.263672
3443.287109	30551.744141
3442.039063	30581.533203
3440.790039	31008.279297
3439.541016	30987.123047
3438.291016	31242.761719
3437.041992	31622.730469
3435.791992	31385.078125
3434.541992	31751.931641
3433.291016	32045.251953
3432.041016	32174.794922
3430.790039	32162.951172
3429.539063	32389.267578
3428.287109	32763.847656
3427.036133	32988.664063
3425.784180	32890.296875
3424.532227	33271.523438
3423.280273	33561.011719
3422.027344	33497.503906
3420.774414	33799.488281
3419.521484	33971.820313
3418.268555	34313.878906
3417.014648	34765.820313
3415.761719	34900.472656
3414.507813	35071.277344
3413.252930	35168.527344
3411.999023	35377.250000
3410.744141	35572.156250
3409.489258	35850.710938
3408.234375	36013.636719
3406.978516	36007.398438
3405.723633	36385.179688
3404.467773	36739.093750
3403.210938	36824.281250
3401.955078	37386.714844
3400.698242	37493.406250
3399.441406	37659.574219
3398.184570	37984.601563
3396.927734	37913.585938
3395.669922	38411.199219
3394.412109	38600.289063
3393.154297	38938.070313
3391.896484	39195.921875
3390.637695	39425.820313
3389.378906	39691.019531
3388.120117	39826.656250
3386.861328	40186.234375
3385.601563	40599.070313
3384.341797	40689.832031
3383.082031	40847.515625
3381.822266	41266.566406
3380.561523	41613.789063
3379.300781	41799.707031
3378.040039	42046.472656
3376.779297	42227.097656
3375.517578	42776.015625
3374.256836	42965.117188
3372.995117	43609.496094
3371.732422	43401.414063
3370.470703	43703.398438
3369.208008	44058.277344
3367.945313	44370.738281
3366.682617	44696.128906
3365.418945	45058.472656
3364.155273	45212.128906
3362.891602	45349.015625
3361.627930	45896.414063
3360.363281	46304.574219
3359.099609	46460.230469
3357.834961	46733.816406
3356.569336	46984.906250
3355.304688	47384.753906
3354.039063	47760.019531
3352.773438	47741.058594
3351.507813	48271.992188
3350.241211	48549.246094
3348.975586	48761.769531
3347.708984	49107.593750
3346.442383	49363.339844
3345.174805	49606.304688
3343.907227	49628.953125
3342.639648	49695.753906
3341.372070	49777.023438
3340.104492	49851.050781
3338.835938	49868.898438
3337.567383	49625.265625
3336.298828	49804.000000
3335.029297	49556.078125
3333.760742	49761.527344
3332.491211	49615.238281
3331.221680	49666.433594
3329.951172	49917.281250
3328.681641	49916.207031
3327.411133	50339.015625
3326.139648	50565.687500
3324.869141	50568.042969
3323.597656	50846.460938
3322.327148	51111.003906
3321.054688	51358.804688
3319.783203	51626.085938
3318.510742	51980.398438
3317.238281	52289.597656
3315.965820	52663.718750
3314.693359	52867.054688
3313.419922	53428.230469
3312.146484	53700.726563
3310.873047	54020.359375
3309.599609	54149.601563
3308.325195	54573.589844
3307.050781	54681.605469
3305.776367	54842.566406
3304.501953	55121.132813
3303.226563	55509.753906
3301.951172	55700.214844
3300.675781	55759.171875
3299.400391	56129.636719
3298.124023	56588.375000
3296.847656	56447.414063
3295.571289	56625.574219
3294.294922	56723.171875
3293.017578	56748.511719
3291.740234	57047.621094
3290.462891	57076.308594
3289.185547	57294.496094
3287.907227	57579.210938
3286.628906	57974.964844
3285.350586	58147.332031
3284.072266	58743.476563
3282.792969	58882.023438
3281.513672	59158.863281
3280.234375	59513.308594
3278.955078	59615.121094
3277.674805	60265.718750
3276.394531	60454.632813
3275.114258	60814.816406
3273.833984	60971.234375
3272.552734	61232.847656
3271.272461	61405.554688
3269.990234	61486.667969
3268.708984	61993.917969
3267.426758	62323.242188
3266.145508	62719.562500
3264.862305	63115.890625
3263.580078	63659.042969
3262.296875	64111.988281
3261.014648	63739.371094
3259.731445	64356.156250
3258.447266	64541.863281
3257.164063	64998.871094
3255.879883	65246.937500
3254.595703	65153.339844
3253.310547	65368.761719
3252.026367	65771.515625
3250.741211	65965.406250
3249.456055	66280.812500
3248.169922	66432.164063
3246.884766	66195.062500
3245.598633	66810.882813
3244.312500	67124.179688
3243.025391	67322.007813
3241.739258	67471.648438
3240.452148	67777.835938
3239.165039	67841.984375
3237.876953	68400.515625
3236.589844	68038.953125
3235.301758	68622.023438
3234.013672	68460.398438
3232.724609	68973.234375
3231.436523	69102.015625
3230.147461	69032.070313
3228.857422	68976.796875
3227.568359	68815.109375
3226.278320	68660.312500
3224.989258	69364.296875
3223.698242	68904.851563
3222.408203	68844.804688
3221.117188	68793.476563
3219.826172	68167.500000
3218.535156	69145.429688
3217.244141	68474.085938
3215.952148	68471.625000
3214.660156	68531.507813
3213.368164	68525.992188
3212.076172	68646.593750
3210.783203	68386.945313
3209.490234	67822.242188
3208.197266	67694.976563
3206.903320	67255.375000
3205.610352	67546.289063
3204.316406	66989.578125
3203.022461	66537.656250
3201.727539	66890.046875
3200.432617	67369.945313
3199.137695	65384.386719
3197.842773	66743.085938
3196.547852	65328.078125
3195.251953	66144.750000
3193.956055	65817.218750
3192.660156	63977.738281
3191.363281	64501.859375
3190.067383	64865.339844
3188.770508	64199.789063
3187.472656	63103.253906
3186.175781	63284.281250
3184.877930	63716.125000
3183.580078	62591.406250
3182.282227	62880.660156
3180.983398	61650.968750
3179.684570	60722.003906
3178.385742	59406.429688
3177.086914	58485.765625
3175.788086	54044.339844
3174.488281	52282.664063
3173.188477	50833.097656
3171.887695	49486.246094
3170.587891	48496.914063
3169.287109	47858.015625
3167.986328	46438.882813
3166.685547	45634.937500
3165.383789	45676.750000
3164.082031	43399.968750
3162.780273	43320.699219
3161.478516	41626.429688
3160.175781	41288.203125
3158.873047	40748.226563
3157.570313	39277.480469
3156.267578	38580.113281
3154.963867	37418.882813
3153.660156	37038.218750
3152.356445	36396.570313
3151.052734	34974.492188
3149.748047	33495.488281
3148.443359	33149.113281
3147.138672	32403.923828
3145.833984	31668.117188
3144.528320	30549.484375
3143.222656	30307.771484
3141.916992	29334.324219
3140.610352	28240.554688
3139.304688	27528.988281
3137.998047	26821.382813
3136.691406	26490.349609
3135.383789	25298.609375
3134.076172	24456.662109
3132.768555	23597.230469
3131.460938	23234.490234
3130.153320	22177.521484
3128.844727	20536.011719
3127.536133	20690.281250
3126.227539	20456.080078
3124.917969	19793.923828
3123.608398	18569.990234
3122.298828	18220.115234
3120.989258	17405.861328
3119.678711	16187.054688
3118.369141	14933.214844
3117.057617	14982.755859
3115.747070	14296.834961
3114.436523	13520.791016
3113.125000	13776.006836
3111.813477	12564.592773
3110.500977	11612.397461
3109.189453	11577.688477
3107.876953	10769.160156
3106.564453	10841.910156
3105.250977	9156.599609
3103.937500	9696.638672
3102.625000	8942.738281
3101.310547	8398.365234
3099.997070	7767.283691
3098.682617	7480.256836
3097.368164	6673.168945
3096.053711	6506.291992
3094.739258	5802.397461
3093.423828	5544.905273
3092.108398	5039.500488
3090.792969	4945.626465
3089.476563	4450.357910
3088.160156	3758.631592
3086.843750	3254.173584
3085.527344	3609.006348
3084.210938	3167.277588
3082.893555	2176.556885
3081.576172	3301.006104
3080.257813	2449.333740
3078.940430	2195.956055
3077.622070	1462.172974
3076.303711	2278.634766
3074.984375	1255.171631
3073.666016	1572.582642
3072.346680	1417.286011
3071.027344	1008.935730
3069.707031	456.030731
3068.387695	1072.300049
3067.067383	850.591919
3065.747070	966.720947
3064.425781	-585.583008
3063.104492	389.918671
3061.783203	767.859802
3060.461914	261.015015
3059.140625	927.737000
3057.818359	388.797852
3056.496094	554.082520
3055.173828	-38.024769
3053.850586	81.761002
3052.527344	58.562397
3051.204102	73.810928
3049.880859	150.156967
3048.556641	837.459778
3047.233398	709.107544
3045.909180	638.433167
3044.583984	908.505981
3043.259766	1822.205322
3041.934570	1968.654663
3040.608398	2106.564453
3039.283203	2746.336182
3037.957031	3641.368896
3036.630859	4436.704590
3035.304688	5128.667480
3033.978516	6182.736328
3032.651367	7252.400391
3031.324219	9218.893555
3029.997070	9569.211914
3028.668945	12016.122070
3027.341797	12718.920898
3026.013672	14357.846680
3024.684570	15443.721680
3023.356445	16845.474609
3022.027344	19011.322266
3020.698242	19939.244141
3019.368164	20924.060547
3018.039063	21752.632813
3016.708984	21878.685547
3015.378906	21841.669922
3014.047852	21978.375000
3012.717773	22271.105469
3011.386719	21245.966797
3010.055664	20535.326172
3008.723633	19087.867188
3007.392578	18495.240234
3006.060547	17652.130859
3004.727539	16633.755859
3003.395508	15931.092773
3002.062500	15274.499023
3000.729492	14378.550781
2999.396484	14192.166016
2998.062500	13892.275391
2996.728516	14001.521484
2995.394531	14167.384766
2994.060547	15510.239258
2992.725586	16274.479492
2991.390625	16930.220703
2990.055664	16910.164063
2988.720703	18740.216797
2987.384766	19767.279297
2986.048828	21423.162109
2984.712891	23144.302734
2983.376953	24425.574219
2982.040039	26318.642578
2980.703125	27065.103516
2979.366211	29163.390625
2978.028320	30420.419922
2976.690430	31716.583984
2975.352539	32810.839844
2974.014648	34067.585938
2972.675781	34327.128906
2971.336914	34353.523438
2969.998047	34161.843750
2968.659180	34997.308594
2967.319336	35269.484375
2965.979492	35079.160156
2964.639648	36363.136719
2963.299805	37173.222656
2961.958984	38106.730469
2960.618164	39170.765625
2959.277344	41867.789063
2957.935547	42996.929688
2956.593750	47495.175781
2955.251953	52109.406250
2953.910156	57208.386719
2952.567383	62622.632813
2951.225586	70820.468750
2949.881836	80088.359375
2948.539063	90996.273438
2947.195313	103616.375000
2945.852539	117080.101563
2944.507813	130416.726563
2943.164063	145078.062500
2941.819336	157969.687500
2940.474609	167417.234375
2939.129883	172283.281250
2937.784180	175536.812500
2936.439453	178359.953125
2935.093750	180552.890625
2933.747070	182115.906250
2932.401367	183708.125000
2931.054688	184646.796875
2929.708008	185626.296875
2928.360352	186129.078125
2927.013672	186550.109375
2925.666016	186845.406250
2924.318359	187178.031250
2922.969727	187364.656250
2921.621094	187280.843750
2920.272461	187514.421875
2918.923828	187535.109375
2917.575195	187817.406250
2916.225586	187790.843750
2914.875977	188023.937500
2913.525391	177851.468750
2912.175781	141325.875000
2910.825195	138807.125000
2909.474609	137104.125000
2908.123047	126247.968750
2906.772461	85447.890625
2905.420898	82612.554688
2904.069336	80296.531250
2902.716797	78320.406250
2901.364258	76596.828125
2900.011719	75578.507813
2898.659180	73843.953125
2897.305664	66229.679688
2895.953125	27192.808594
2894.599609	25606.699219
2893.245117	24256.333984
2891.891602	22984.193359
2890.537109	21956.804688
2889.181641	20470.929688
2887.827148	20065.166016
2886.471680	18520.142578
2885.116211	18193.400391
2883.760742	16491.537109
2882.405273	16156.899414
2881.048828	15839.619141
2879.692383	14654.820313
2878.334961	14348.178711
2876.978516	13741.573242
2875.621094	12537.224609
2874.263672	12486.558594
2872.905273	12755.058594
2871.547852	13292.424805
2870.189453	11940.057617
2868.830078	11264.175781
2867.471680	11216.127930
2866.112305	11010.556641
2864.752930	11033.537109
2863.393555	11231.604492
2862.033203	10933.905273
2860.672852	11344.378906
2859.312500	11159.762695
2857.952148	11888.750000
2856.590820	11817.248047
2855.229492	12146.590820
2853.868164	12619.469727
2852.505859	11971.166016
2851.144531	12514.568359
2849.782227	12412.482422
2848.418945	13272.503906
2847.056641	13187.762695
2845.693359	13721.791992
2844.330078	12968.856445
2842.965820	12974.056641
2841.602539	12389.344727
2840.238281	11417.026367
2838.874023	10995.260742
2837.508789	10995.661133
2836.143555	9818.918945
2834.778320	8549.742188
2833.413086	8162.183105
2832.046875	7467.960449
2830.681641	6272.901855
2829.314453	5844.024414
2827.948242	4129.618652
2826.581055	4360.813965
2825.214844	3612.118652
2823.846680	3142.522217
2822.479492	2934.858154
2821.111328	2517.826660
2819.743164	1672.116943
2818.375000	2135.328125
2817.005859	1726.011719
2815.636719	1266.281494
2814.267578	557.166565
2812.898438	732.422424
2811.528320	964.917480
2810.158203	626.769287
2808.788086	276.569458
2807.416992	589.371094
2806.046875	-64.056427
2804.675781	-91.082268
2803.303711	717.585632
2801.932617	405.487885
2800.560547	343.929535
2799.188477	341.301514
2797.815430	858.595947
2796.443359	248.845200
2795.070313	-53.980965
2793.696289	159.292511
2792.323242	69.008217
2790.949219	776.599304
2789.575195	272.845917
2788.201172	-162.745926
2786.826172	46.441730
2785.451172	-283.823822
2784.076172	-306.059967
2782.701172	-136.768509
2781.325195	140.501038
2779.949219	-133.996063
2778.573242	122.722839
2777.196289	93.230675
2775.819336	-104.433403
2774.442383	597.338318
2773.065430	-310.471527
2771.687500	222.042709
2770.309570	125.454826
2768.931641	-153.596176
2767.553711	868.614624
2766.174805	507.708344
2764.795898	577.363708
2763.416992	654.969727
2762.037109	4.895167
2760.657227	464.719635
2759.277344	990.340027
2757.897461	714.145386
2756.516602	1139.759033
2755.135742	968.506226
2753.754883	959.197815
2752.373047	1177.032959
2750.991211	1209.190796
2749.609375	1602.138428
2748.227539	2017.429077
2746.844727	2102.555908
2745.461914	1479.700806
2744.079102	2387.198242
2742.696289	2131.234619
2741.312500	2221.447998
2739.928711	2879.734619
2738.544922	2747.452393
2737.160156	2435.589355
2735.775391	3150.238770
2734.390625	2975.493164
2733.005859	2900.937012
2731.620117	3262.274170
2730.234375	3689.272705
2728.848633	3653.400146
2727.461914	3663.623779
2726.076172	4235.355469
2724.689453	4057.936768
2723.301758	4458.340820
2721.915039	4987.319336
2720.527344	5111.717773
2719.138672	6191.790527
2717.750977	5966.535645
2716.362305	6525.661621
2714.973633	6954.069336
2713.584961	7705.413574
2712.195313	7561.326660
2710.806641	7520.679688
2709.416016	7810.400391
2708.026367	8120.621582
2706.635742	7904.932129
2705.245117	7451.175293
2703.854492	7568.341797
2702.462891	7019.825195
2701.072266	7243.177246
2699.680664	6373.544434
2698.288086	6146.509766
2696.896484	5595.441406
2695.503906	5851.770996
2694.110352	5509.588867
2692.717773	5121.783203
2691.324219	4909.290039
2689.930664	4504.145996
2688.537109	4098.389160
2687.142578	4649.686523
2685.748047	4708.764648
2684.353516	4032.137695
2682.958984	4444.655273
2681.563477	4512.334961
2680.167969	4253.201172
2678.771484	4306.974121
2677.375977	4682.224609
2675.979492	3996.806885
2674.583008	4214.895996
2673.185547	4179.936035
2671.789063	4382.166992
2670.391602	3717.843994
2668.993164	4405.377930
2667.595703	4060.027344
2666.197266	4120.076172
2664.798828	4390.351563
2663.400391	4348.875977
2662.000977	4562.353516
2660.601563	4130.153320
2659.202148	4733.429688
2657.801758	4282.283691
2656.401367	4425.227051
2655.000977	4155.100586
2653.600586	4273.528320
2652.199219	4005.929199
2650.797852	4231.996094
2649.396484	4056.016113
2647.995117	4469.776367
2646.592773	4383.608398
2645.190430	4305.777344
2643.787109	3917.348145
2642.384766	4433.613281
2640.981445	4318.485840
2639.578125	4801.318848
2638.173828	4585.355469
2636.769531	4659.127930
2635.365234	4255.212891
2633.960938	4229.998047
2632.555664	4736.373535
2631.150391	4270.600586
2629.745117	4071.270508
2628.339844	4614.857422
2626.933594	4592.343750
2625.527344	4727.522949
2624.121094	4410.666016
2622.713867	4123.699707
2621.306641	4966.292969
2619.899414	5109.943848
2618.492188	4464.493164
2617.083984	4690.702148
2615.675781	4836.429199
2614.266602	4781.121582
2612.858398	5007.423828
2611.449219	4952.904297
2610.040039	4601.681152
2608.629883	4833.691895
2607.220703	4822.138184
2605.810547	5349.141113
2604.399414	4952.079590
2602.989258	4946.297363
2601.578125	5416.741699
2600.166992	4945.922363
2598.754883	5395.877441
2597.343750	4860.625000
2595.930664	4757.265137
2594.518555	4586.184570
2593.106445	4858.935547
2591.693359	5384.248047
2590.280273	5270.338867
2588.866211	4514.109375
2587.452148	5508.385742
2586.038086	5205.961914
2584.624023	5521.920898
2583.208984	4906.100098
2581.794922	5240.650391
2580.378906	5689.645020
2578.963867	5159.543945
2577.547852	5784.203613
2576.131836	5564.343262
2574.715820	5571.904297
2573.298828	6419.215332
2571.881836	5481.972168
2570.464844	6559.343750
2569.047852	5798.115234
2567.629883	6200.754395
2566.211914	6215.020996
2564.793945	6280.060059
2563.375000	6002.915527
2561.956055	6902.559570
2560.537109	6839.667969
2559.118164	6716.588379
2557.698242	6903.240234
2556.278320	6769.063477
2554.857422	6578.375488
2553.437500	7027.992676
2552.016602	7243.176270
2550.595703	6803.555664
2549.173828	7238.024414
2547.752930	7504.908691
2546.330078	6656.849121
2544.908203	7234.377441
2543.485352	7034.650391
2542.063477	7006.862305
2540.639648	7317.996094
2539.216797	7428.444336
2537.792969	7391.135742
2536.369141	7492.287598
2534.945313	7624.730957
2533.520508	7425.224609
2532.095703	7630.884766
2530.670898	7423.948730
2529.245117	7544.901367
2527.819336	8046.108887
2526.393555	7766.660645
2524.967773	7807.880859
2523.541016	7463.345703
2522.114258	7772.306152
2520.687500	7437.967773
2519.260742	7551.944336
2517.833008	7600.920410
2516.405273	7893.038086
2514.976563	7510.927246
2513.547852	7517.299316
2512.119141	7581.213379
2510.690430	7415.718262
2509.261719	7720.606934
2507.832031	7915.055176
2506.402344	7513.018555
2504.971680	7855.703613
2503.541016	8140.377930
2502.110352	7582.513184
2500.679688	7720.018555
2499.248047	8135.069336
2497.816406	7933.316406
2496.384766	8078.926758
2494.953125	8020.066406
2493.520508	7910.504883
2492.087891	7655.979004
2490.655273	8697.663086
2489.221680	7889.879395
2487.788086	8433.819336
2486.354492	7938.203125
2484.919922	8323.025391
2483.485352	8665.711914
2482.050781	8406.935547
2480.616211	8574.965820
2479.180664	9138.233398
2477.745117	9032.397461
2476.309570	8567.788086
2474.873047	8595.931641
2473.437500	8773.566406
2472.000000	8690.081055
2470.563477	9394.567383
2469.125977	9303.776367
2467.688477	9633.756836
2466.250977	8927.191406
2464.812500	9140.456055
2463.374023	9294.427734
2461.935547	9359.595703
2460.497070	9674.803711
2459.057617	9753.590820
2457.618164	9816.602539
2456.177734	9468.033203
2454.738281	10266.920898
2453.297852	10838.075195
2451.857422	10487.454102
2450.416016	10764.977539
2448.974609	10641.595703
2447.533203	10282.311523
2446.091797	11086.523438
2444.649414	10903.973633
2443.207031	11139.119141
2441.764648	11453.782227
2440.321289	11087.398438
2438.877930	11249.394531
2437.434570	11745.484375
2435.990234	11789.421875
2434.546875	12207.138672
2433.101563	11461.601563
2431.657227	11887.759766
2430.211914	12052.467773
2428.766602	12059.621094
2427.321289	12644.331055
2425.875977	11880.042969
2424.429688	12097.957031
2422.983398	12531.767578
2421.536133	11935.462891
2420.089844	12593.591797
2418.642578	12047.467773
2417.194336	12650.012695
2415.747070	11886.393555
2414.298828	12136.429688
2412.849609	11704.577148
2411.401367	11847.430664
2409.952148	11919.473633
2408.502930	11273.845703
2407.052734	12082.307617
2405.603516	10809.153320
2404.152344	11336.319336
2402.703125	11442.562500
2401.251953	11324.785156
2399.800781	11050.215820
2398.349609	11242.513672
2396.898438	11226.294922
2395.445313	10946.674805
2393.994141	10482.817383
2392.541016	11019.192383
2391.087891	10514.194336
2389.634766	10799.058594
2388.181641	10471.379883
2386.728516	10651.120117
2385.275391	10920.153320
2383.820313	10649.328125
2382.365234	10242.774414
2380.910156	10279.696289
2379.455078	9730.678711
2378.000000	9865.503906
2376.544922	9586.329102
2375.089844	8989.560547
2373.632813	9024.833984
2372.175781	8716.772461
2370.718750	8765.727539
2369.261719	8387.401367
2367.804688	8252.764648
2366.347656	7437.278320
2364.888672	7143.428223
2363.429688	6841.080566
2361.972656	6768.380371
2360.513672	6443.856934
2359.054688	6364.421387
2357.593750	5783.177734
2356.134766	5246.551270
2354.673828	5499.538086
2353.214844	5317.462891
2351.753906	4931.829590
2350.292969	4277.643555
2348.832031	4443.193359
2347.369141	4326.481445
2345.908203	3491.394775
2344.445313	3675.763916
2342.984375	3555.625732
2341.521484	2980.950928
2340.058594	2866.128662
2338.593750	2635.221924
2337.130859	2414.525879
2335.667969	3343.220703
2334.203125	3861.798828
2332.738281	5078.345215
2331.273438	6494.039063
2329.808594	7320.403809
2328.343750	5655.470215
2326.878906	3736.995850
2325.412109	1957.471924
2323.945313	1759.226318
2322.478516	2041.742920
2321.011719	1601.427612
2319.544922	1069.217407
2318.078125	1789.408447
2316.611328	1442.937866
2315.142578	652.155945
2313.673828	944.546997
2312.205078	710.743286
2310.736328	415.705109
2309.267578	561.463074
2307.798828	361.735382
2306.328125	900.348022
2304.859375	702.217102
2303.388672	111.432785
2301.917969	812.792603
2300.447266	397.163055
2298.974609	143.158615
2297.503906	349.516663
2296.031250	382.568390
2294.560547	663.395325
2293.087891	236.101593
2291.615234	109.391655
2290.142578	115.045921
2288.667969	-84.603271
2287.195313	509.659515
2285.720703	-32.758171
2284.246094	-113.752907
2282.773438	-137.228638
2281.296875	46.233685
2279.822266	414.197510
2278.347656	-263.583527
2276.871094	178.776443
2275.396484	-532.708374
2273.919922	0.828430
2272.443359	17.655165
2270.966797	274.778625
2269.488281	2.060560
2268.011719	-67.663284
2266.533203	190.854889
2265.056641	273.193542
2263.578125	-82.501694
2262.099609	-182.836578
2260.619141	-115.770630
2259.140625	174.181976
2257.662109	95.554039
2256.181641	-354.708160
2254.701172	-362.342529
2253.220703	-403.842499
2251.740234	-290.091980
2250.259766	154.376556
2248.777344	389.383545
2247.296875	-18.785940
2245.814453	-193.990021
2244.332031	362.807800
2242.849609	202.567261
2241.367188	-166.775421
2239.884766	155.059799
2238.400391	94.165543
2236.917969	-110.124008
2235.433594	506.080658
2233.949219	38.903099
2232.464844	925.732605
2230.978516	342.348511
2229.494141	77.141304
2228.009766	293.257599
2226.523438	719.585449
2225.037109	220.358795
2223.550781	452.857544
2222.064453	382.455414
2220.576172	288.508362
2219.089844	473.417358
2217.601563	564.098694
2216.115234	73.164955
2214.626953	450.906738
2213.138672	705.746887
2211.648438	742.141846
2210.160156	951.229126
2208.669922	1076.250854
2207.181641	672.353271
2205.691406	1144.433838
2204.201172	1126.330566
2202.710938	1190.284546
2201.218750	868.461304
2199.728516	995.860840
2198.236328	653.800415
2196.744141	933.486328
2195.251953	1289.979736
2193.759766	1230.732300
2192.267578	1266.820801
2190.775391	1394.845337
2189.281250	1293.376343
2187.787109	1406.043091
2186.294922	1782.843628
2184.800781	1351.270508
2183.304688	1490.228027
2181.810547	1697.455811
2180.316406	1802.437500
2178.820313	1950.749512
2177.324219	1935.038696
2175.828125	1713.608276
2174.332031	2172.113281
2172.835938	1988.809937
2171.337891	2223.007813
2169.841797	2121.231934
2168.343750	2097.868164
2166.845703	2059.307129
2165.347656	2706.453857
2163.849609	2405.478760
2162.351563	2282.935303
2160.851563	2088.615234
2159.353516	2521.070801
2157.853516	2201.371826
2156.353516	1981.621704
2154.853516	2171.709717
2153.353516	2543.134521
2151.851563	2796.022705
2150.351563	2608.866943
2148.849609	2419.999268
2147.347656	2124.470459
2145.845703	2200.020996
2144.343750	2460.048340
2142.839844	2759.778564
2141.337891	2859.497070
2139.833984	2149.126465
2138.330078	2631.015625
2136.826172	2266.343262
2135.322266	2440.123291
2133.818359	2445.776855
2132.314453	2441.255371
2130.808594	2818.626709
2129.302734	2317.109131
2127.796875	2418.302979
2126.291016	2907.683350
2124.785156	2204.975830
2123.279297	2761.796387
2121.771484	2209.999756
2120.263672	2454.376709
2118.757813	2595.546631
2117.250000	2491.110596
2115.740234	2366.660400
2114.232422	2462.398438
2112.724609	2571.116699
2111.214844	2744.238037
2109.705078	2653.695801
2108.195313	2415.566895
2106.685547	2571.358154
2105.175781	2256.724854
2103.664063	2862.229004
2102.154297	2239.414551
2100.642578	2683.726807
2099.130859	2337.000244
2097.619141	3030.334961
2096.107422	2435.191162
2094.595703	2671.497314
2093.082031	2471.219727
2091.570313	2792.852295
2090.056641	2833.328369
2088.542969	2625.788818
2087.029297	2707.052979
2085.513672	2877.257568
2084.000000	2733.446533
2082.484375	2871.698242
2080.968750	2570.749512
2079.455078	2573.135010
2077.937500	2638.059082
2076.421875	2696.034668
2074.906250	2550.946777
2073.388672	2779.882324
2071.873047	2810.641357
2070.355469	2510.007568
2068.837891	3232.212402
2067.320313	3220.950928
2065.800781	2982.245605
2064.283203	2838.798584
2062.763672	2540.475586
2061.244141	3084.565430
2059.724609	3149.387451
2058.205078	2963.870605
2056.685547	2763.358154
2055.164063	2932.675293
2053.644531	2869.794189
2052.123047	3319.529785
2050.601563	2850.203857
2049.080078	2778.386475
2047.558594	3144.905029
2046.035156	2758.871582
2044.513672	3063.935059
2042.990234	2936.897949
2041.466797	2794.857910
2039.943359	3000.479004
2038.419922	3291.049316
2036.896484	3025.154785
2035.371094	2964.131348
2033.847656	2719.156738
2032.322266	2695.356201
2030.796875	3023.658936
2029.271484	2733.775146
2027.744141	3144.960938
2026.218750	3011.835938
2024.691406	2921.115234
2023.164063	3085.550293
2021.636719	3067.937012
2020.109375	2699.791504
2018.582031	3041.668213
2017.054688	2610.941406
2015.525391	3127.169678
2013.996094	2923.371582
2012.468750	2583.615234
2010.939453	2698.179199
2009.408203	2194.679688
2007.878906	3099.541992
2006.347656	2928.840088
2004.818359	3198.875732
2003.287109	2839.846191
2001.755859	2684.758301
2000.224609	2939.150879
1998.691406	2385.351563
1997.160156	2317.682129
1995.626953	2409.648193
1994.093750	2401.797852
1992.560547	2413.217041
1991.027344	2662.374512
1989.494141	2534.606934
1987.960938	2131.187500
1986.425781	1932.971924
1984.890625	2231.377930
1983.355469	2596.147949
1981.820313	2276.579102
1980.285156	2251.515625
1978.750000	2463.809082
1977.212891	2024.821167
1975.675781	2202.354492
1974.138672	2091.596924
1972.601563	2374.174072
1971.064453	2293.742432
1969.527344	2227.677734
1967.988281	2252.401367
1966.451172	2072.048096
1964.912109	2190.444580
1963.373047	1712.365601
1961.833984	1900.038330
1960.292969	2251.359375
1958.753906	1894.450928
1957.212891	2011.339966
1955.671875	2131.138672
1954.130859	1908.285645
1952.589844	1810.132935
1951.048828	2062.017334
1949.505859	2073.575195
1947.964844	2078.332764
1946.421875	1729.522217
1944.878906	1999.548462
1943.335938	1664.904297
1941.792969	1560.114014
1940.248047	1866.421387
1938.705078	1644.497803
1937.160156	1831.946533
1935.615234	1771.416382
1934.070313	1485.720947
1932.525391	1537.978516
1930.978516	1850.352417
1929.433594	1479.901611
1927.886719	1534.545166
1926.339844	1650.317383
1924.792969	1652.641235
1923.246094	2018.228760
1921.699219	1377.003174
1920.150391	1564.320801
1918.601563	1541.366211
1917.052734	1749.023438
1915.503906	1480.168701
1913.955078	1188.561279
1912.406250	1366.319702
1910.855469	1687.329712
1909.306641	1599.885986
1907.755859	1294.555420
1906.205078	1330.861206
1904.654297	1782.734741
1903.101563	1438.114746
1901.550781	1863.486816
1899.998047	1362.235229
1898.447266	1397.198120
1896.894531	1436.750732
1895.339844	1498.581055
1893.787109	1730.724976
1892.234375	1595.635864
1890.679688	1505.422485
1889.125000	1429.478760
1887.570313	1293.814453
1886.015625	1482.743652
1884.460938	1590.979248
1882.906250	1138.038452
1881.349609	1735.918945
1879.792969	1342.102783
1878.236328	1232.513672
1876.679688	1055.286377
1875.123047	1569.883667
1873.566406	1327.994995
1872.007813	1280.171021
1870.449219	1264.239502
1868.890625	871.092896
1867.332031	675.170837
1865.773438	711.616028
1864.214844	367.868011
1862.654297	256.468018
1861.093750	700.995605
1859.533203	217.429535
1857.972656	457.912506
1856.412109	533.134216
1854.851563	478.409393
1853.289063	599.613770
1851.728516	427.642792
1850.166016	439.589386
1848.603516	497.722900
1847.039063	104.558807
1845.476563	21.611822
1843.914063	336.647736
1842.349609	267.704865
1840.785156	401.585083
1839.220703	455.322052
1837.656250	612.699463
1836.091797	461.555603
1834.525391	102.693481
1832.958984	342.541199
1831.392578	250.085632
1829.826172	289.962128
1828.259766	227.532547
1826.693359	82.002609
1825.125000	430.830353
1823.558594	69.708755
1821.990234	156.598083
1820.421875	249.670471
1818.853516	-331.587067
1817.285156	-230.789032
1815.714844	142.232544
1814.144531	-263.896240
1812.576172	22.693636
1811.005859	20.866234
1809.433594	-135.501205
1807.863281	-178.946243
1806.292969	-360.934113
1804.720703	-186.649475
1803.148438	-375.183624
1801.576172	-608.283691
1800.003906	-332.681274
1798.431641	-124.068764
1796.857422	-103.178307
1795.285156	-285.771484
1793.710938	-52.229603
1792.136719	20.708714
1790.562500	1.421417
1788.986328	-19.550753
1787.412109	-404.069550
1785.835938	111.201248
1784.259766	102.625343
1782.683594	138.369797
1781.107422	-139.984222
1779.531250	-17.168053
1777.955078	335.360443
1776.376953	-252.155594
1774.798828	-59.914280
1773.220703	79.892189
1771.642578	69.110680
1770.064453	531.744324
1768.484375	-36.565670
1766.906250	31.634146
1765.326172	120.326233
1763.746094	159.867828
1762.166016	3.183977
1760.583984	113.806358
1759.003906	255.970261
1757.421875	-14.600159
1755.841797	680.666565
1754.259766	180.900635
1752.675781	152.144302
1751.093750	404.547394
1749.511719	157.758621
1747.927734	831.598572
1746.343750	250.096939
1744.759766	456.413300
1743.175781	569.535339
1741.591797	895.591370
1740.005859	718.315979
1738.421875	910.148376
1736.835938	1021.484131
1735.250000	1198.985962
1733.664063	1792.508789
1732.076172	1878.396729
1730.490234	1961.120117
1728.902344	2388.777832
1727.316406	3274.535645
1725.728516	3271.960938
1724.138672	3614.143555
1722.550781	4928.834961
1720.962891	5643.519531
1719.373047	6694.596680
1717.783203	8520.681641
1716.193359	10473.434570
1714.603516	13043.296875
1713.013672	16536.394531
1711.421875	19836.373047
1709.830078	24244.314453
1708.240234	28529.542969
1706.648438	32916.722656
1705.054688	36579.847656
1703.462891	39867.890625
1701.871094	42052.808594
1700.277344	42518.554688
1698.683594	41757.300781
1697.089844	39192.542969
1695.496094	36421.921875
1693.902344	31722.380859
1692.306641	27388.568359
1690.710938	23210.246094
1689.117188	19176.351563
1687.521484	15723.899414
1685.923828	13209.656250
1684.328125	11030.120117
1682.730469	9460.666992
1681.134766	8397.591797
1679.537109	7162.928223
1677.939453	6473.422363
1676.341797	5743.670410
1674.742188	5236.442871
1673.144531	5214.335938
1671.544922	4521.666504
1669.945313	4481.250000
1668.345703	4036.238525
1666.746094	3908.744385
1665.144531	4114.187012
1663.544922	3702.801025
1661.943359	4017.835693
1660.341797	3151.120361
1658.740234	3266.690186
1657.138672	3703.852783
1655.535156	3345.325684
1653.933594	3043.278320
1652.330078	3142.345215
1650.726563	3073.167236
1649.123047	2937.177490
1647.519531	2567.660645
1645.914063	2594.288330
1644.310547	2909.320801
1642.705078	2422.270752
1641.099609	2359.214844
1639.494141	2663.836182
1637.888672	2084.380127
1636.281250	2271.098145
1634.675781	2065.841064
1633.068359	2276.272949
1631.460938	2388.852051
1629.853516	1654.143555
1628.244141	1865.236694
1626.636719	1586.846313
1625.027344	1708.209717
1623.417969	1848.424072
1621.808594	1452.898804
1620.199219	1251.933716
1618.589844	1732.961792
1616.978516	1462.690918
1615.369141	1276.597534
1613.757813	625.313538
1612.146484	1499.676147
1610.535156	948.438354
1608.921875	500.067474
1607.310547	864.622559
1605.697266	1144.058960
1604.083984	713.829529
1602.470703	992.210449
1600.857422	804.454651
1599.242188	686.781555
1597.628906	814.120789
1596.013672	678.525696
1594.398438	496.845123
1592.783203	614.245972
1591.167969	383.762268
1589.550781	244.974884
1587.935547	452.996338
1586.318359	648.900024
1584.701172	-40.811317
1583.083984	375.247772
1581.466797	102.236229
1579.847656	154.143387
1578.230469	209.436310
1576.611328	-172.002319
1574.992188	-203.984787
1573.373047	-224.797592
1571.751953	34.120823
1570.132813	-232.930725
1568.511719	-44.385864
1566.890625	-194.902817
1565.269531	-159.940125
1563.648438	38.793694
1562.027344	-153.730286
1560.404297	82.669540
1558.783203	553.520203
1557.160156	882.831299
1555.537109	1213.925903
1553.912109	867.729492
1552.289063	166.390305
1550.664063	-55.547195
1549.041016	149.250961
1547.416016	-130.286255
1545.791016	-158.573120
1544.164063	-380.220673
1542.539063	56.702854
1540.912109	254.044037
1539.287109	-87.821968
1537.660156	-14.203024
1536.033203	55.171150
1534.404297	289.309357
1532.777344	453.082764
1531.148438	250.265396
1529.519531	247.500458
1527.890625	314.219360
1526.261719	614.556580
1524.632813	338.357544
1523.001953	933.923279
1521.373047	683.141296
1519.742188	745.682922
1518.111328	1001.765747
1516.478516	533.317688
1514.847656	1200.823853
1513.214844	1119.420044
1511.583984	1257.456665
1509.951172	1412.751099
1508.318359	825.916321
1506.683594	1181.125244
1505.050781	959.661316
1503.416016	867.291382
1501.783203	584.148193
1500.148438	1523.547607
1498.511719	906.499939
1496.876953	374.189514
1495.242188	732.064514
1493.605469	656.309387
1491.968750	765.890930
1490.332031	733.825684
1488.695313	677.794006
1487.058594	791.710876
1485.419922	1623.513062
1483.781250	1451.219360
1482.142578	991.080444
1480.503906	1690.963867
1478.865234	1848.050171
1477.226563	1921.659912
1475.585938	2026.233032
1473.945313	2317.183350
1472.304688	2349.401611
1470.664063	2919.903809
1469.023438	3251.463867
1467.380859	3085.399170
1465.740234	3853.193115
1464.097656	3895.035400
1462.455078	3951.015381
1460.812500	4393.953613
1459.167969	4844.825684
1457.525391	4941.516602
1455.880859	5388.446777
1454.236328	6194.484375
1452.591797	6433.652832
1450.947266	7072.881348
1449.302734	8069.380371
1447.656250	8412.762695
1446.009766	9611.556641
1444.363281	10412.473633
1442.716797	11225.660156
1441.070313	12632.452148
1439.421875	14131.762695
1437.775391	15195.398438
1436.126953	16209.050781
1434.478516	17701.996094
1432.830078	18842.996094
1431.179688	20241.757813
1429.531250	20767.332031
1427.880859	21031.054688
1426.230469	20826.998047
1424.580078	20384.171875
1422.929688	20011.648438
1421.279297	18791.873047
1419.626953	17271.900391
1417.974609	15834.751953
1416.322266	14637.730469
1414.669922	13249.552734
1413.017578	12055.999023
1411.363281	10793.911133
1409.710938	10002.921875
1408.056641	9377.537109
1406.402344	8622.904297
1404.748047	7962.709961
1403.091797	7431.718750
1401.437500	7055.363770
1399.781250	6516.616211
1398.125000	5960.425781
1396.468750	5364.165527
1394.812500	5259.004883
1393.154297	5085.009766
1391.498047	4744.027832
1389.839844	4761.099121
1388.181641	4448.411621
1386.523438	4479.978516
1384.865234	4310.008789
1383.205078	3935.702881
1381.544922	4273.020508
1379.884766	4107.577148
1378.224609	4355.220703
1376.564453	4256.918457
1374.904297	4290.026855
1373.242188	4684.779785
1371.580078	5222.712891
1369.919922	5786.327148
1368.255859	6843.559570
1366.593750	7613.483887
1364.931641	8538.326172
1363.267578	8841.034180
1361.603516	8634.625000
1359.939453	8065.133789
1358.275391	7367.104004
1356.611328	5996.994629
1354.945313	5033.316406
1353.279297	4358.622559
1351.613281	3528.518799
1349.947266	3338.330566
1348.281250	3304.616211
1346.615234	2281.411865
1344.947266	2359.715576
1343.279297	1843.186768
1341.611328	2096.149902
1339.943359	1904.304443
1338.275391	1930.130859
1336.605469	2137.637451
1334.935547	1659.511963
1333.267578	1660.972534
1331.597656	1659.868164
1329.925781	1710.078613
1328.255859	1902.659424
1326.583984	1784.414795
1324.912109	1374.881836
1323.240234	1774.845459
1321.568359	1895.387207
1319.896484	1766.557373
1318.224609	1479.687622
1316.550781	1610.203491
1314.876953	1858.975830
1313.203125	2066.116943
1311.529297	1718.005493
1309.853516	2116.856934
1308.179688	1984.374512
1306.503906	2050.799072
1304.828125	1772.827637
1303.152344	2332.041016
1301.474609	2257.577881
1299.798828	2737.958984
1298.121094	2327.068115
1296.443359	2014.967651
1294.765625	2837.160156
1293.087891	2087.593750
1291.410156	2720.747314
1289.730469	2977.222168
1288.050781	2611.508545
1286.371094	2636.140137
1284.691406	3006.228516
1283.011719	3322.815430
1281.332031	2616.051270
1279.650391	3081.803711
1277.968750	2853.178955
1276.287109	3338.397461
1274.605469	3166.656982
1272.921875	3334.067627
1271.240234	3244.461914
1269.556641	3680.964844
1267.873047	3538.290039
1266.189453	3909.533447
1264.505859	3792.407715
1262.820313	4429.476563
1261.134766	4312.664551
1259.451172	4439.223145
1257.765625	5068.724121
1256.078125	5278.544434
1254.392578	5586.130371
1252.705078	6105.749512
1251.019531	7053.402832
1249.332031	8455.686523
1247.642578	9542.062500
1245.955078	10543.546875
1244.267578	12612.196289
1242.578125	13965.161133
1240.888672	14111.411133
1239.199219	13750.133789
1237.509766	13294.362305
1235.818359	11902.699219
1234.128906	10567.738281
1232.437500	9784.919922
1230.746094	7989.955078
1229.054688	8084.383301
1227.363281	7484.362305
1225.669922	6859.580566
1223.976563	6614.616211
1222.283203	6948.540527
1220.589844	7192.252930
1218.896484	7097.839355
1217.203125	7003.434082
1215.507813	7341.388672
1213.812500	7508.047852
1212.117188	7345.723633
1210.421875	7830.652344
1208.726563	8175.262695
1207.029297	8525.641602
1205.332031	8416.079102
1203.636719	8923.597656
1201.937500	9046.596680
1200.240234	9320.998047
1198.542969	9724.716797
1196.843750	10034.033203
1195.144531	10123.830078
1193.445313	10635.687500
1191.746094	11185.423828
1190.046875	11258.291016
1188.345703	11797.145508
1186.644531	12035.715820
1184.943359	12523.854492
1183.242188	12582.536133
1181.541016	13535.653320
1179.837891	13993.295898
1178.136719	14186.110352
1176.433594	14883.753906
1174.730469	15561.785156
1173.027344	15728.609375
1171.322266	16308.957031
1169.619141	16651.070313
1167.914063	17206.996094
1166.208984	17659.775391
1164.503906	18513.746094
1162.796875	18959.720703
1161.091797	19739.210938
1159.384766	19677.244141
1157.677734	20278.498047
1155.970703	21112.009766
1154.263672	21738.416016
1152.554688	22193.037109
1150.847656	22458.248047
1149.138672	23330.291016
1147.429688	23729.099609
1145.720703	25076.548828
1144.009766	25399.585938
1142.300781	25900.365234
1140.589844	26948.710938
1138.878906	27636.738281
1137.167969	28112.216797
1135.455078	28863.222656
1133.744141	29876.253906
1132.031250	30781.921875
1130.318359	31545.154297
1128.605469	32393.716797
1126.892578	32771.621094
1125.179688	34539.125000
1123.464844	35426.007813
1121.750000	35890.613281
1120.035156	36908.507813
1118.320313	37902.144531
1116.605469	38403.746094
1114.888672	38565.226563
1113.171875	39888.488281
1111.455078	40517.441406
1109.738281	41505.207031
1108.021484	42008.699219
1106.302734	42633.738281
1104.585938	43140.003906
1102.867188	43350.226563
1101.148438	43697.937500
1099.429688	43745.351563
1097.708984	44498.757813
1095.990234	44066.539063
1094.269531	44250.113281
1092.548828	44588.425781
1090.828125	44789.410156
1089.105469	43974.578125
1087.384766	44097.339844
1085.662109	44143.957031
1083.939453	44104.250000
1082.216797	44861.949219
1080.492188	45781.167969
1078.769531	46272.804688
1077.044922	47894.664063
1075.320313	48474.164063
1073.595703	48797.570313
1071.871094	47510.066406
1070.146484	46180.351563
1068.419922	43497.546875
1066.693359	41385.734375
1064.966797	38975.781250
1063.240234	37278.328125
1061.513672	35680.664063
1059.785156	34628.476563
1058.056641	33707.585938
1056.328125	32744.341797
1054.599609	31767.664063
1052.871094	31008.906250
1051.140625	29837.718750
1049.412109	29513.017578
1047.681641	29090.841797
1045.951172	28548.101563
1044.218750	28066.875000
1042.488281	27284.601563
1040.755859	26849.742188
1039.023438	26424.287109
1037.291016	25868.240234
1035.558594	25647.685547
1033.826172	24984.949219
1032.091797	24785.966797
1030.357422	23946.003906
1028.623047	23951.601563
1026.888672	23611.830078
1025.154297	23166.076172
1023.417969	22672.060547
1021.681641	22256.505859
1019.945313	22251.986328
1018.208984	21578.509766
1016.472656	21592.337891
1014.734375	21549.078125
1012.998047	21414.181641
1011.259766	21721.386719
1009.521484	21255.212891
1007.783203	21328.833984
1006.042969	21364.042969
1004.302734	21546.246094
1002.564453	22083.658203
1000.824219	22142.886719
999.082031	22433.736328
997.341797	22272.515625
995.599609	22971.691406
993.859375	23528.835938
992.117188	23387.271484
990.373047	23330.794922
988.630859	23223.046875
986.886719	22889.125000
985.144531	22534.175781
983.400391	22406.203125
981.656250	22169.710938
979.910156	21635.613281
978.166016	20891.482422
976.419922	20231.052734
974.673828	19612.750000
972.927734	19408.755859
971.181641	18991.884766
969.433594	19245.197266
967.687500	19166.775391
965.939453	19108.691406
964.191406	18737.730469
962.441406	18953.406250
960.693359	18982.009766
958.943359	18412.046875
957.195313	18837.080078
955.445313	18900.763672
953.693359	18651.873047
951.943359	18954.541016
950.191406	18757.642578
948.441406	18315.599609
946.689453	18556.074219
944.935547	18696.798828
943.183594	18438.326172
941.431641	18331.359375
939.677734	18066.382813
937.923828	18180.921875
936.169922	18056.212891
934.414063	18105.582031
932.660156	18009.867188
930.904297	17555.466797
929.148438	17908.857422
927.392578	17658.677734
925.636719	17255.097656
923.878906	17566.222656
922.123047	17370.966797
920.365234	16998.160156
918.607422	17087.904297
916.849609	16926.150391
915.089844	16467.527344
913.330078	16711.365234
911.572266	16023.242188
909.812500	16304.404297
908.050781	15724.901367
906.291016	15654.246094
904.529297	15262.926758
902.767578	15171.444336
901.005859	14643.129883
899.244141	14252.858398
897.482422	14318.273438
895.718750	13776.833984
893.957031	13771.821289
892.193359	13324.680664
890.427734	13359.732422
888.664063	12612.881836
886.898438	13008.288086
885.134766	12646.057617
883.369141	12346.421875
881.603516	12075.442383
879.835938	12230.745117
878.070313	11760.793945
876.302734	11854.271484
874.535156	11662.188477
872.767578	11780.110352
871.000000	11117.737305
869.230469	11091.910156
867.460938	11265.583008
865.693359	11272.753906
863.921875	10953.671875
862.152344	10372.339844
860.382813	10353.495117
858.611328	10518.347656
856.839844	10314.975586
855.068359	9962.371094
853.296875	9632.741211
851.523438	9578.475586
849.751953	9624.710938
847.978516	9537.164063
846.205078	9448.515625
844.431641	9508.165039
842.656250	9149.498047
840.880859	9594.240234
839.107422	9664.544922
837.332031	9478.750000
835.554688	9974.610352
833.779297	10077.988281
832.001953	10652.941406
830.226563	10628.751953
828.447266	11288.287109
826.669922	12135.024414
824.892578	12472.774414
823.113281	13535.959961
821.333984	14600.448242
819.554688	16252.167969
817.775391	18091.785156
815.996094	19942.232422
814.214844	22992.703125
812.435547	27308.648438
810.654297	32413.212891
808.871094	39521.105469
807.089844	49303.273438
805.306641	59704.285156
803.525391	70823.585938
801.742188	78504.851563
799.958984	82447.671875
798.173828	79740.835938
796.390625	71343.046875
794.605469	60867.664063
792.820313	49810.511719
791.035156	40104.261719
789.248047	32480.072266
787.462891	26232.859375
785.675781	22272.435547
783.888672	18763.365234
782.101563	16338.987305
780.314453	14847.583008
778.525391	12549.203125
776.736328	11690.758789
774.947266	10520.279297
773.158203	10034.169922
771.369141	9122.888672
769.578125	8187.408203
767.789063	7472.358398
765.998047	6896.395020
764.207031	6318.599121
762.414063	6112.807617
760.623047	5562.016113
758.830078	5285.453613
757.037109	4853.603027
755.244141	4411.574219
753.451172	3960.788818
751.656250	3733.843994
749.863281	3541.406738
748.068359	2572.501953
746.271484	2519.707275
744.476563	2261.892822
742.681641	2030.143799
740.884766	1621.128906
739.087891	1595.865356
737.291016	1645.292725
735.494141	1591.354492
733.695313	1016.824158
731.896484	1005.202026
730.097656	923.713379
728.298828	673.763367
726.500000	202.687103
724.701172	355.171356
722.900391	190.512222
721.099609	-129.853485
719.298828	-6.140863
717.496094	-77.167130
715.695313	-291.145752
713.892578	-141.929672
712.089844	-230.123215
710.287109	-84.104706
708.484375	-76.916451
706.679688	-57.531628
704.876953	-367.899719
703.072266	-205.940277
701.267578	44.536819
699.460938	-54.257404
697.656250	240.329758
695.849609	119.383354
694.042969	463.504211
692.236328	283.135712
690.429688	39.283844
688.621094	135.704102
686.812500	127.106850
685.005859	447.803314
683.195313	683.916626
681.386719	440.774323
679.578125	41.835934
677.767578	202.523346
675.957031	494.577515
674.146484	677.708618
672.333984	838.816528
670.523438	630.482727
668.710938	1117.805176
666.898438	1221.804932
665.085938	963.442505
663.273438	1294.350586
661.458984	1356.596436
659.644531	1554.340088
657.830078	1687.714600
656.015625	1630.055908
654.201172	1572.942261
652.384766	2157.952393
650.570313	1957.336304
648.753906	2002.267822
646.935547	2229.312012
645.119141	2141.996094
643.300781	2693.475098
641.484375	2500.202881
639.666016	2644.454590
637.847656	2741.273682
636.027344	3094.316895
634.208984	2915.031006
632.388672	3075.808350
630.568359	3392.563477
628.748047	3326.961426
626.925781	3544.960205
625.105469	3949.193115
623.283203	4259.389648
621.460938	4250.772949
619.636719	4786.187988
617.814453	4368.095215
615.990234	5375.576660
614.167969	4959.658203
612.343750	5489.099121
610.517578	5890.527832
608.693359	5950.595703
606.867188	6180.139648
605.041016	6821.542969
603.214844	6761.633301
601.388672	7279.185059
599.562500	7580.221191
597.734375	7972.594727
595.906250	7297.939453
594.078125	8063.435059
592.250000	8294.057617
590.419922	8391.922852
588.591797	8979.103516
586.761719	8997.661133
584.931641	9505.299805
583.099609	9828.389648
581.269531	10167.959961
579.437500	10192.130859
577.605469	10938.426758
575.773438	10621.727539
573.941406	11253.470703
572.107422	11818.287109
570.273438	12324.503906
568.439453	11935.173828
566.605469	12681.654297
564.771484	12889.926758
562.935547	13447.160156
561.101563	13892.935547
559.265625	13877.224609
557.427734	14553.497070
555.591797	14592.992188
553.753906	15532.403320
551.917969	16037.946289
550.080078	16519.242188
548.240234	17234.724609
546.402344	17160.542969
544.562500	17694.554688
542.724609	16763.912109
540.884766	15839.677734
539.042969	15186.765625
537.203125	13426.582031
535.361328	11658.278320
533.519531	10190.108398
531.677734	9220.046875
529.835938	7734.115234
527.994141	6826.163574
526.150391	6255.710449
524.306641	5076.033691
522.462891	4377.598633
520.619141	3586.745117
518.773438	3470.545898
516.927734	2834.939697
515.082031	2975.280273
513.236328	2852.319580
511.390625	2738.387695
509.542969	2125.839355
507.697266	2146.500000
505.849609	2162.619385
504.000000	2078.157227
502.152344	3169.984863
500.302734	2958.700684
498.455078	2982.321777
496.605469	3164.993652
494.753906	3356.634033
492.904297	2960.078857
491.052734	2787.517822
489.203125	2587.620117
487.351563	2176.794189
485.498047	2242.266357
483.646484	1521.860840
481.792969	1658.178223
479.939453	1655.104004
478.085938	1307.729126
476.232422	1396.979370
474.376953	1383.383301
472.523438	1257.488892
470.667969	1555.741089
468.812500	1340.185669
466.955078	1218.630493
465.099609	897.374146
463.242188	1340.572510
461.384766	1273.007935
459.527344	580.629272
457.667969	1039.813965
455.810547	860.699524
453.951172	862.795959
452.091797	662.720337
450.232422	694.775940
448.371094	866.127441
446.511719	762.704346
444.650391	631.971558
442.789063	469.825989
440.927734	441.432404
439.064453	199.054443
437.201172	309.141327
435.337891	268.221344
433.474609	109.915154
431.611328	216.537582
429.748047	492.667786
427.882813	-71.277580
426.017578	-27.236698
424.152344	166.029572
422.285156	44.931583
420.419922	-78.458000
418.552734	347.778656
416.685547	-19.789812
414.818359	408.263824
412.949219	516.655945
411.082031	932.871948
409.212891	1069.620239
407.343750	1451.195557
405.472656	1848.860596
403.603516	2694.136963
401.732422	2076.965088
399.861328	2442.150391
397.990234	2307.417725
396.119141	2290.116211
394.246094	1474.169800
392.375000	658.176270
390.501953	583.118896
388.628906	614.441345
386.753906	692.095520
384.880859	246.163788
383.005859	54.652634
381.130859	-58.794819
379.253906	537.674255
377.378906	133.379105
375.501953	416.002411
373.626953	-160.501678
371.748047	109.475426
369.871094	-254.436356
367.994141	110.088730
366.115234	-192.234909
364.236328	-201.763458
362.357422	171.659256
360.478516	7.280962
358.597656	-5.686654
356.716797	26.071194
354.835938	-98.290909
352.955078	200.629257
351.074219	-463.299713
349.191406	-350.663605
347.308594	-301.524109
345.425781	-19.871901
343.542969	-151.114243
341.658203	171.639435
339.775391	-83.227325
337.890625	59.789627
336.005859	-309.637573
334.119141	122.839760
332.234375	-368.360199
330.347656	11.997661
328.460938	326.269104
326.574219	251.099884
324.685547	152.249161
322.798828	22.777758
320.910156	-24.737169
319.021484	-91.192314
317.132813	-274.668060
315.242188	193.515961
313.351563	-17.998177
311.460938	-40.089741
309.570313	97.851021
307.679688	-179.452164
305.787109	136.487503
303.896484	323.568481
302.003906	-163.764664
300.111328	-20.474680
298.216797	-43.351055
296.322266	90.919029
294.429688	-77.309998
292.535156	-268.234039
290.638672	-451.741791
288.744141	-2.902113
286.847656	-88.005699
284.951172	78.787270
283.054688	45.004509
281.158203	186.099609
279.259766	329.109741
277.361328	120.807373
275.462891	193.282059
273.564453	-5.552556
271.666016	48.127209
269.765625	215.632202
267.865234	250.651215
265.964844	817.291565
264.064453	125.031227
262.162109	115.039513
260.261719	530.439270
258.359375	387.380432
256.457031	176.166229
254.552734	521.693909
252.650391	410.979492
250.746094	198.231796
248.841797	539.769470
246.937500	201.153168
245.031250	333.109955
243.126953	930.171753
241.220703	730.775818
239.314453	570.658508
237.406250	451.808319
235.500000	348.163025
233.591797	878.646729
231.683594	270.091003
229.775391	313.501648
227.865234	591.280457
225.957031	869.197998
224.046875	702.420166
222.136719	362.099365
220.226563	257.510284
218.314453	-108.128891
216.402344	138.998871
214.490234	216.134476
212.578125	-67.869766
210.666016	-334.175171
208.751953	-649.094971
206.839844	191.195923
204.925781	59.384857
203.009766	82.519844
201.095703	-360.243805
