#Wave		#Intensity
4001.644531	3994.237549
4000.500000	3885.045654
3999.354492	3877.782715
3998.209961	3850.875244
3997.064453	3944.022217
3995.918945	3901.836182
3994.772461	3820.392578
3993.626953	3989.843506
3992.480469	3973.844238
3991.333984	3940.405762
3990.187500	3928.781494
3989.040039	3899.722900
3987.893555	3888.110107
3986.746094	3907.007813
3985.598633	3869.253906
3984.451172	3933.890869
3983.302734	3713.207520
3982.154297	3884.543213
3981.006836	3848.997559
3979.857422	3902.706787
3978.708984	3984.687256
3977.560547	4020.944824
3976.411133	3911.434570
3975.261719	3967.267334
3974.112305	3846.933594
3972.961914	3965.810303
3971.811523	3919.431396
3970.662109	3912.191162
3969.511719	3868.011719
3968.360352	3967.242676
3967.209961	3923.069092
3966.058594	3987.503418
3964.907227	3897.741699
3963.755859	3838.407227
3962.604492	3807.312988
3961.452148	3923.806641
3960.299805	3784.215332
3959.147461	3848.603271
3957.995117	3869.586426
3956.841797	3916.585449
3955.689453	3935.379883
3954.536133	3919.481445
3953.382813	3855.904541
3952.228516	3840.026367
3951.075195	3947.653076
3949.920898	3858.110596
3948.766602	3967.860107
3947.612305	3848.030029
3946.458008	3890.623535
3945.302734	3957.012695
3944.147461	3852.399902
3942.992188	3840.872070
3941.836914	4006.752930
3940.680664	3835.132813
3939.525391	3793.336426
3938.369141	3911.563721
3937.211914	3956.243652
3936.055664	3899.317139
3934.898438	3743.001221
3933.742188	3768.240723
3932.584961	3817.233887
3931.426758	3799.252197
3930.269531	3962.674561
3929.111328	3836.717285
3927.953125	3788.519775
3926.794922	3807.246826
3925.636719	3879.914795
3924.477539	3937.453125
3923.319336	3889.271729
3922.160156	3966.197266
3921.000000	3764.929199
3919.840820	3895.747070
3918.680664	3964.006348
3917.520508	3874.916016
3916.360352	3930.225098
3915.200195	3910.112061
3914.040039	3958.932373
3912.878906	3949.588867
3911.717773	3791.681885
3910.556641	3812.510498
3909.394531	3887.140137
3908.233398	3944.526611
3907.071289	3834.070313
3905.909180	3884.991455
3904.746094	3789.642090
3903.583984	3797.544922
3902.420898	3816.194580
3901.257813	3826.239014
3900.094727	3823.384277
3898.931641	3779.703857
3897.767578	3920.800293
3896.603516	3739.646240
3895.439453	3824.860352
3894.275391	3867.098877
3893.111328	3859.945313
3891.946289	3837.769287
3890.781250	3957.238037
3889.616211	3787.004639
3888.451172	3876.405029
3887.285156	3785.607666
3886.119141	3900.708008
3884.953125	3777.778809
3883.787109	3807.092529
3882.620117	3883.546631
3881.454102	3981.400635
3880.287109	3762.136230
3879.120117	4012.062012
3877.952148	3630.106689
3876.785156	3817.867432
3875.617188	3806.458496
3874.449219	3880.672119
3873.281250	3931.317627
3872.112305	3922.032959
3870.944336	3848.572998
3869.775391	3785.834717
3868.606445	3774.443115
3867.436523	3812.231689
3866.267578	3770.911377
3865.097656	3804.411865
3863.927734	3882.774902
3862.757813	3758.139648
3861.587891	3894.157227
3860.416992	3919.066650
3859.246094	3794.493164
3858.075195	3883.459473
3856.904297	3872.069336
3855.732422	3926.841797
3854.560547	3830.096924
3853.388672	3803.788574
3852.216797	3798.819580
3851.044922	3930.337158
3849.872070	3771.829346
3848.699219	3830.822021
3847.526367	3894.055664
3846.353516	3818.750732
3845.179688	3920.313721
3844.005859	3740.651123
3842.832031	3795.334717
3841.658203	3760.562012
3840.484375	3753.479492
3839.309570	3806.001221
3838.134766	3764.860596
3836.959961	3806.721191
3835.785156	3861.330811
3834.609375	3841.472900
3833.434570	3717.415527
3832.258789	3789.020996
3831.082031	3739.424561
3829.906250	3694.097412
3828.729492	3820.919434
3827.552734	3743.723145
3826.375977	3825.878174
3825.199219	3765.700439
3824.021484	3815.968018
3822.844727	3878.955566
3821.666992	3714.786865
3820.489258	3805.359863
3819.310547	3912.874512
3818.131836	3695.751465
3816.954102	3779.913574
3815.774414	3864.044434
3814.595703	3869.689941
3813.416992	3813.853760
3812.237305	3806.788574
3811.057617	3810.321777
3809.877930	3650.705322
3808.697266	3724.173584
3807.516602	3928.931885
3806.336914	3803.263916
3805.155273	3775.034912
3803.974609	3791.270264
3802.792969	3858.294189
3801.612305	3753.892334
3800.430664	3831.476318
3799.248047	3851.918945
3798.066406	3830.056152
3796.883789	3662.301270
3795.701172	3970.281006
3794.518555	3781.424805
3793.335938	3791.290527
3792.152344	3868.765625
3790.968750	3705.383301
3789.785156	3850.433838
3788.601563	3758.914551
3787.417969	3870.119629
3786.233398	3759.631348
3785.048828	3864.462891
3783.864258	3836.313721
3782.678711	3856.699951
3781.494141	3725.201660
3780.308594	3760.363770
3779.123047	3846.119385
3777.937500	3769.509521
3776.750977	3699.251465
3775.564453	3858.730713
3774.377930	3672.593994
3773.191406	3853.085205
3772.004883	3816.563477
3770.817383	3721.090332
3769.629883	3783.564453
3768.442383	3784.967041
3767.254883	3752.693848
3766.066406	3825.648193
3764.878906	3812.314209
3763.690430	3700.118896
3762.500977	3962.324951
3761.312500	3728.183350
3760.123047	3859.939941
3758.933594	3821.387451
3757.744141	3784.950684
3756.554688	3759.033203
3755.364258	3789.846924
3754.173828	3868.958496
3752.983398	3717.038086
3751.792969	3823.428711
3750.602539	3747.145508
3749.411133	3723.361816
3748.219727	3804.509766
3747.028320	3826.881592
3745.835938	3842.951660
3744.644531	3835.945557
3743.452148	3889.751953
3742.259766	3725.500977
3741.067383	3758.346191
3739.874023	3839.381104
3738.680664	3803.046387
3737.487305	3785.579590
3736.293945	3847.712402
3735.100586	3796.736816
3733.906250	3747.873535
3732.711914	3912.554688
3731.517578	3641.829346
3730.323242	3787.635010
3729.127930	3814.129395
3727.932617	3871.991211
3726.737305	3831.533203
3725.541992	3872.641602
3724.345703	3756.934082
3723.150391	3793.860107
3721.954102	3690.749268
3720.757813	3842.596191
3719.560547	3810.544189
3718.364258	3903.827637
3717.166992	3825.832520
3715.969727	3783.361328
3714.771484	3895.385254
3713.574219	3819.521729
3712.375977	3804.203125
3711.177734	3903.641602
3709.979492	3865.366699
3708.780273	3968.927490
3707.582031	3818.052002
3706.382813	3794.407715
3705.183594	3754.096436
3703.983398	3853.432129
3702.784180	3796.455078
3701.583984	3833.246826
3700.383789	3892.936768
3699.182617	3840.148682
3697.982422	3810.283447
3696.781250	3928.232178
3695.580078	3885.873291
3694.378906	3866.420410
3693.177734	3828.249512
3691.975586	3827.535889
3690.773438	3922.492920
3689.571289	3950.873535
3688.369141	3804.605469
3687.166016	3990.973145
3685.962891	3848.908447
3684.759766	3881.436523
3683.556641	3880.712646
3682.352539	3817.676514
3681.149414	3927.029297
3679.945313	3990.662354
3678.740234	3940.095947
3677.536133	4047.288574
3676.331055	4019.556641
3675.126953	3944.115479
3673.920898	3972.420898
3672.715820	3940.570068
3671.510742	4033.146484
3670.304688	3953.612061
3669.098633	3923.854492
3667.891602	3981.150391
3666.685547	3955.542969
3665.478516	3932.016357
3664.271484	3947.852539
3663.064453	3837.358398
3661.857422	4118.230469
3660.649414	3987.044189
3659.441406	4019.415283
3658.233398	4022.803467
3657.025391	3986.880127
3655.816406	3996.478516
3654.607422	4082.595703
3653.398438	4094.239990
3652.189453	4159.632324
3650.980469	4100.978516
3649.770508	4178.745117
3648.560547	4126.308105
3647.350586	4177.183594
3646.139648	4207.385254
3644.929688	4165.297363
3643.718750	4232.654297
3642.507813	4198.833984
3641.295898	4051.510010
3640.084961	3982.655518
3638.873047	4155.216797
3637.661133	4222.512207
3636.449219	4172.225098
3635.236328	4062.158691
3634.023438	4174.788574
3632.810547	4029.721191
3631.597656	4288.635254
3630.384766	4125.056152
3629.170898	4113.984375
3627.957031	4226.498535
3626.743164	4318.376953
3625.529297	4224.917480
3624.314453	4271.473633
3623.099609	4237.744141
3621.884766	4232.835449
3620.669922	4316.396484
3619.454102	4200.396973
3618.239258	4172.875000
3617.023438	4313.974121
3615.806641	4241.211914
3614.590820	4312.359375
3613.374023	4235.514160
3612.157227	4261.432617
3610.940430	4295.558105
3609.723633	4321.455078
3608.505859	4265.200195
3607.288086	4258.242188
3606.070313	4302.605957
3604.852539	4217.652344
3603.633789	4245.590820
3602.415039	4220.176270
3601.196289	4379.381836
3599.977539	4310.883789
3598.758789	4373.640625
3597.539063	4387.171875
3596.319336	4388.399902
3595.099609	4469.550293
3593.878906	4374.461914
3592.659180	4369.545410
3591.438477	4311.377930
3590.217773	4374.051270
3588.996094	4352.757324
3587.775391	4290.531250
3586.553711	4385.918457
3585.332031	4381.003906
3584.109375	4349.494629
3582.887695	4356.861328
3581.665039	4417.397461
3580.442383	4340.915039
3579.219727	4428.006836
3577.996094	4555.944824
3576.773438	4504.001465
3575.549805	4468.422852
3574.325195	4381.787598
3573.101563	4476.958984
3571.876953	4349.513672
3570.652344	4399.738770
3569.427734	4298.891602
3568.203125	4473.600586
3566.977539	4478.882324
3565.752930	4533.125000
3564.526367	4381.334473
3563.300781	4580.368164
3562.075195	4481.638184
3560.848633	4391.099609
3559.622070	4494.223633
3558.395508	4495.417480
3557.167969	4468.087402
3555.940430	4542.619141
3554.712891	4431.786133
3553.485352	4612.183594
3552.257813	4523.773926
3551.029297	4510.710938
3549.800781	4544.461426
3548.572266	4578.198730
3547.343750	4455.276367
3546.114258	4521.561523
3544.884766	4559.350586
3543.655273	4586.958984
3542.425781	4559.670410
3541.195313	4556.781250
3539.965820	4645.336426
3538.734375	4475.833008
3537.503906	4580.620117
3536.273438	4687.398926
3535.041992	4607.326172
3533.810547	4643.003418
3532.579102	4589.356445
3531.346680	4643.287598
3530.115234	4563.282715
3528.882813	4609.083496
3527.650391	4610.245117
3526.416992	4653.991699
3525.184570	4632.841797
3523.951172	4788.058594
3522.717773	4718.249023
3521.483398	4695.071777
3520.250000	4675.955078
3519.015625	4711.536133
3517.781250	4647.868164
3516.545898	4790.756836
3515.311523	4678.510742
3514.076172	4710.015625
3512.840820	4684.845215
3511.605469	4688.010254
3510.369141	4832.778809
3509.133789	4825.801758
3507.897461	4707.607422
3506.660156	4753.222656
3505.423828	4734.135254
3504.186523	4783.769531
3502.949219	4754.580078
3501.711914	4715.299805
3500.474609	4700.272949
3499.236328	4877.104004
3497.998047	4858.013672
3496.759766	4748.086426
3495.521484	4904.625000
3494.282227	4758.406250
3493.042969	4953.217285
3491.803711	4926.060547
3490.564453	4828.324219
3489.324219	4944.369141
3488.084961	4772.070801
3486.844727	4823.579590
3485.603516	4871.038574
3484.363281	5039.375977
3483.122070	4915.537598
3481.880859	4999.207031
3480.639648	4945.905762
3479.397461	4951.014160
3478.156250	4871.571777
3476.914063	4808.260742
3475.671875	4936.140625
3474.428711	4907.043457
3473.186523	4873.933594
3471.943359	4985.638672
3470.700195	5010.838867
3469.456055	5062.164063
3468.212891	5047.139160
3466.968750	4943.695801
3465.724609	5005.050293
3464.479492	4990.043945
3463.235352	5009.187500
3461.990234	5026.315430
3460.745117	5021.351563
3459.499023	4956.168457
3458.253906	5073.645020
3457.007813	5032.555664
3455.761719	5063.705566
3454.515625	5090.831543
3453.268555	5077.837891
3452.021484	5215.229980
3450.775391	5067.901855
3449.527344	5058.927734
3448.280273	4947.755371
3447.032227	5010.935547
3445.784180	5092.120117
3444.536133	4995.023438
3443.287109	5114.226563
3442.039063	5063.208984
3440.790039	5112.294922
3439.541016	5075.305664
3438.291016	5022.322754
3437.041992	5093.393555
3435.791992	5110.433105
3434.541992	5107.467773
3433.291016	5138.493164
3432.041016	5041.568359
3430.790039	5104.572754
3429.539063	5171.549805
3428.287109	5090.656250
3427.036133	5153.614746
3425.784180	5230.529297
3424.532227	5109.734375
3423.280273	5024.919922
3422.027344	5101.814453
3420.774414	5116.814941
3419.521484	5115.847168
3418.268555	5128.843750
3417.014648	5185.714844
3415.761719	5081.039063
3414.507813	5054.159668
3413.252930	5270.481445
3411.999023	5201.722168
3410.744141	5192.767578
3409.489258	5032.405762
3408.234375	5144.990234
3406.978516	5144.016602
3405.723633	5137.069824
3404.467773	5094.292480
3403.210938	5149.058105
3401.955078	5183.903320
3400.698242	5123.233887
3399.441406	5026.781250
3398.184570	5117.316895
3396.927734	5148.163574
3395.669922	5061.700684
3394.412109	5124.349609
3393.154297	4998.176270
3391.896484	5023.060547
3390.637695	5190.969727
3389.378906	5122.455078
3388.120117	5002.334473
3386.861328	5108.602051
3385.601563	5091.753906
3384.341797	5049.110352
3383.082031	5058.075195
3381.822266	5096.795898
3380.561523	5058.142090
3379.300781	5023.469238
3378.040039	5121.659180
3376.779297	5085.003906
3375.517578	5056.291016
3374.256836	5031.552246
3372.995117	4929.550781
3371.732422	5081.149902
3370.470703	5066.322266
3369.208008	5019.817383
3367.945313	5080.240234
3366.682617	5011.975586
3365.418945	5032.794922
3364.155273	4921.033203
3362.891602	4933.948242
3361.627930	5071.468750
3360.363281	5013.157227
3359.099609	5014.183594
3357.834961	4928.228516
3356.569336	5034.021973
3355.304688	5076.540527
3354.039063	4960.986816
3352.773438	4867.205078
3351.507813	5026.252441
3350.241211	5094.408691
3348.975586	4994.731934
3347.708984	4962.202637
3346.442383	5083.614746
3345.174805	5068.837891
3343.907227	4908.086914
3342.639648	5029.439453
3341.372070	4866.784180
3340.104492	4980.211426
3338.835938	4985.179688
3337.567383	4923.137207
3336.298828	5097.572754
3335.029297	4998.100586
3333.760742	4995.181152
3332.491211	5051.343262
3331.221680	5046.445313
3329.951172	4899.811523
3328.681641	4912.657715
3327.411133	4882.207031
3326.139648	4853.734863
3324.869141	4931.496094
3323.597656	4946.292480
3322.327148	4974.847656
3321.054688	4810.726563
3319.783203	4990.646973
3318.510742	4942.532715
3317.238281	4982.854980
3315.965820	4824.749512
3314.693359	4971.139648
3313.419922	4907.355469
3312.146484	4914.275391
3310.873047	4868.192383
3309.599609	5034.087891
3308.325195	4944.830078
3307.050781	4967.431641
3305.776367	5017.485840
3304.501953	4942.008789
3303.226563	4978.322754
3301.951172	4895.040039
3300.675781	5015.628418
3299.400391	4822.630859
3298.124023	4960.819824
3296.847656	4814.918945
3295.571289	4888.425293
3294.294922	4897.285645
3293.017578	5033.396484
3291.740234	4850.401367
3290.462891	4829.907715
3289.185547	4928.776855
3287.907227	4939.576172
3286.628906	4934.723633
3285.350586	4783.208984
3284.072266	4954.351074
3282.792969	4961.226563
3281.513672	4827.381836
3280.234375	4851.864746
3278.955078	4921.272461
3277.674805	4805.090820
3276.394531	4940.879395
3275.114258	4822.785645
3273.833984	4944.853516
3272.552734	4840.465820
3271.272461	4915.648926
3269.990234	4819.110352
3268.708984	4921.578125
3267.426758	4942.093262
3266.145508	4851.454102
3264.862305	4953.856445
3263.580078	4828.163086
3262.296875	4866.219238
3261.014648	4921.796387
3259.731445	4967.612305
3258.447266	4855.645020
3257.164063	4839.140625
3255.879883	4842.111328
3254.595703	4930.731445
3253.310547	4958.984375
3252.026367	4747.885742
3250.741211	4892.891113
3249.456055	4818.043457
3248.169922	4867.687500
3246.884766	4893.979980
3245.598633	4904.709961
3244.312500	4822.141602
3243.025391	4726.001465
3241.739258	4857.215820
3240.452148	4848.518555
3239.165039	4814.576660
3237.876953	4986.475098
3236.589844	4861.273438
3235.301758	4887.519531
3234.013672	4838.069824
3232.724609	4872.071289
3231.436523	4814.883301
3230.147461	4905.122559
3228.857422	4764.564453
3227.568359	4819.879883
3226.278320	4846.097656
3224.989258	4759.896484
3223.698242	4850.059082
3222.408203	4814.260742
3221.117188	4813.340820
3219.826172	4794.991699
3218.535156	4801.820313
3217.244141	4837.683594
3215.952148	4904.500488
3214.660156	4682.960938
3213.368164	4829.105957
3212.076172	4787.561035
3210.783203	4896.883789
3209.490234	4803.133301
3208.197266	4634.021484
3206.903320	4662.128418
3205.610352	4705.685059
3204.316406	4756.953125
3203.022461	4653.658691
3201.727539	4797.624512
3200.432617	4698.223633
3199.137695	4705.047852
3197.842773	4682.914063
3196.547852	4832.553223
3195.251953	4627.094727
3193.956055	4628.138672
3192.660156	4677.402344
3191.363281	4720.861816
3190.067383	4779.729004
3188.770508	4786.524902
3187.472656	4660.331055
3186.175781	4597.775391
3184.877930	4666.253418
3183.580078	4630.687500
3182.282227	4685.651367
3180.983398	4659.722656
3179.684570	4589.525391
3178.385742	4521.279297
3177.086914	4576.221191
3175.788086	4488.763184
3174.488281	4509.063965
3173.188477	4492.813477
3171.887695	4438.110840
3170.587891	4558.381836
3169.287109	4524.831055
3167.986328	4523.964355
3166.685547	4442.396484
3165.383789	4479.966797
3164.082031	4473.346191
3162.780273	4497.453125
3161.478516	4554.190430
3160.175781	4451.578125
3158.873047	4456.482422
3157.570313	4599.543945
3156.267578	4458.610840
3154.963867	4411.720703
3153.660156	4288.137207
3152.356445	4530.825195
3151.052734	4453.274902
3149.748047	4262.670410
3148.443359	4282.932129
3147.138672	4264.867188
3145.833984	4204.666504
3144.528320	4427.937988
3143.222656	4256.668457
3141.916992	4294.141113
3140.610352	4331.599121
3139.304688	4380.524902
3137.998047	4343.330078
3136.691406	4334.844727
3135.383789	4362.702148
3134.076172	4245.216797
3132.768555	4200.428223
3131.460938	4348.721191
3130.153320	4122.369141
3128.844727	4154.061523
3127.536133	4300.366211
3126.227539	4144.825684
3124.917969	4252.882324
3123.608398	4177.602051
3122.298828	4117.621582
3120.989258	4103.470703
3119.678711	4146.571777
3118.369141	4204.918457
3117.057617	4087.753662
3115.747070	4123.203613
3114.436523	4093.810059
3113.125000	4030.112305
3111.813477	4130.357422
3110.500977	4083.827637
3109.189453	4225.939941
3107.876953	4044.159424
3106.564453	4031.954590
3105.250977	4055.934082
3103.937500	4087.519287
3102.625000	4105.768066
3101.310547	4137.331055
3099.997070	4014.760986
3098.682617	3996.867432
3097.368164	4125.434570
3096.053711	4082.805420
3094.739258	4068.711182
3093.423828	3889.243896
3092.108398	4019.632568
3090.792969	3971.354980
3089.476563	4016.186279
3088.160156	4002.117432
3086.843750	3872.210205
3085.527344	3991.083740
3084.210938	3891.601807
3082.893555	3966.771729
3081.576172	3929.953613
3080.257813	3885.560547
3078.940430	3975.862793
3077.622070	3880.271484
3076.303711	3896.589844
3074.984375	3863.611084
3073.666016	3796.527344
3072.346680	3816.641846
3071.027344	3884.115723
3069.707031	3883.367676
3068.387695	3846.634521
3067.067383	3815.595947
3065.747070	3879.230713
3064.425781	3867.126221
3063.104492	3781.218506
3061.783203	3833.469727
3060.461914	3821.380371
3059.140625	3790.381592
3057.818359	3810.452637
3056.496094	3760.560547
3055.173828	3827.886963
3053.850586	3778.010254
3052.527344	3775.392578
3051.204102	3721.766357
3049.880859	3787.158936
3048.556641	3795.871094
3047.233398	3729.054688
3045.909180	3841.601318
3044.583984	3889.932861
3043.259766	3655.190186
3041.934570	3852.585693
3040.608398	3761.299805
3039.283203	3852.985596
3037.957031	3761.734375
3036.630859	3759.123291
3035.304688	3722.585693
3033.978516	3797.247070
3032.651367	3828.544434
3031.324219	3628.126709
3029.997070	3695.228760
3028.668945	3809.380859
3027.341797	3718.277100
3026.013672	3740.146973
3024.684570	3681.084717
3023.356445	3729.295166
3022.027344	3734.218750
3020.698242	3729.735840
3019.368164	3792.952393
3018.039063	3634.289063
3016.708984	3706.897949
3015.378906	3730.614258
3014.047852	3803.176270
3012.717773	3770.503906
3011.386719	3647.685059
3010.055664	3714.586670
3008.723633	3629.377441
3007.392578	3684.992920
3006.060547	3734.956055
3004.727539	3674.186279
3003.395508	3684.732910
3002.062500	3633.374756
3000.729492	3673.931641
2999.396484	3616.969971
2998.062500	3700.631592
2996.728516	3750.522705
2995.394531	3599.880615
2994.060547	3702.232666
2992.725586	3632.206787
2991.390625	3704.546387
2990.055664	3589.606689
2988.720703	3616.994629
2987.384766	3678.063965
2986.048828	3604.366943
2984.712891	3652.317383
2983.376953	3660.964111
2982.040039	3620.978760
2980.703125	3704.427002
2979.366211	3671.926758
2978.028320	3594.576660
2976.690430	3640.603271
2975.352539	3697.822998
2974.014648	3652.271240
2972.675781	3636.621582
2971.336914	3576.159424
2969.998047	3625.878174
2968.659180	3606.509033
2967.319336	3671.133301
2965.979492	3653.628418
2964.639648	3595.085938
2963.299805	3637.291016
2961.958984	3645.911133
2960.618164	3652.663086
2959.277344	3597.893799
2957.935547	3567.375488
2956.593750	3650.540527
2955.251953	3530.594238
2953.910156	3682.655518
2952.567383	3549.712158
2951.225586	3571.368652
2949.881836	3576.261475
2948.539063	3657.465820
2947.195313	3580.458008
2945.852539	3460.686523
2944.507813	3541.865479
2943.164063	3537.458984
2941.819336	3568.384521
2940.474609	3515.636719
2939.129883	3587.447266
2937.784180	3609.052734
2936.439453	3604.636475
2935.093750	3657.810791
2933.747070	3592.094238
2932.401367	3604.396240
2931.054688	3549.854980
2929.708008	3569.585205
2928.360352	3537.342285
2927.013672	3449.445557
2925.666016	3573.072998
2924.318359	3607.621094
2922.969727	3571.686279
2921.621094	3537.619141
2920.272461	3546.201172
2918.923828	3588.140625
2917.575195	3583.737793
2916.225586	3597.863281
2914.875977	3513.811279
2913.525391	3620.541504
2912.175781	3634.650879
2910.825195	3543.235352
2909.474609	3579.564209
2908.123047	3560.364014
2906.772461	3596.675293
2905.420898	3668.117920
2904.069336	3648.911133
2902.716797	3515.069580
2901.364258	3586.486084
2900.011719	3596.879150
2898.659180	3518.564697
2897.305664	3521.576172
2895.953125	3557.837158
2894.599609	3584.849121
2893.245117	3547.221191
2891.891602	3546.531738
2890.537109	3625.212891
2889.181641	3491.634033
2887.827148	3500.180664
2886.471680	3501.344727
2885.116211	3561.529053
2883.760742	3520.267334
2882.405273	3702.106934
2881.048828	3513.368164
2879.692383	3634.320068
2878.334961	3552.538574
2876.978516	3456.050781
2875.621094	3584.310303
2874.263672	3602.028076
2872.905273	3501.904053
2871.547852	3585.899902
2870.189453	3566.797363
2868.830078	3639.707031
2867.471680	3449.505615
2866.112305	3684.274414
2864.752930	3525.401611
2863.393555	3646.066895
2862.033203	3457.849854
2860.672852	3558.263672
2859.312500	3566.758545
2857.952148	3509.109863
2856.590820	3567.206299
2855.229492	3619.770508
2853.868164	3488.698242
2852.505859	3715.657715
2851.144531	3467.149170
2849.782227	3627.961182
2848.418945	3517.170654
2847.056641	3463.288574
2845.693359	3585.492432
2844.330078	3582.959961
2842.965820	3633.593994
2841.602539	3568.732910
2840.238281	3549.711426
2838.874023	3563.677246
2837.508789	3533.672607
2836.143555	3445.071045
2834.778320	3600.047363
2833.413086	3579.206543
2832.046875	3582.169434
2830.681641	3543.039063
2829.314453	3575.283203
2827.948242	3580.073730
2826.581055	3555.598389
2825.214844	3573.191162
2823.846680	3524.958252
2822.479492	3612.011719
2821.111328	3532.720703
2819.743164	3696.481934
2818.375000	3640.954346
2817.005859	3481.337158
2815.636719	3584.748535
2814.267578	3691.771240
2812.898438	3585.174561
2811.528320	3434.817383
2810.158203	3671.362061
2808.788086	3604.967773
2807.416992	3580.551514
2806.046875	3661.917236
2804.675781	3630.205811
2803.303711	3607.621338
2801.932617	3648.836426
2800.560547	3604.389893
2799.188477	3652.876709
2797.815430	3581.123535
2796.443359	3629.595459
2795.070313	3603.394775
2793.696289	3575.383789
2792.323242	3632.928467
2790.949219	3566.707520
2789.575195	3595.120605
2788.201172	3581.684570
2786.826172	3597.352783
2785.451172	3556.646240
2784.076172	3588.674316
2782.701172	3617.054688
2781.325195	3563.646729
2779.949219	3566.583740
2778.573242	3553.170410
2777.196289	3581.534668
2775.819336	3542.701416
2774.442383	3683.616211
2773.065430	3583.063721
2771.687500	3549.696777
2770.309570	3534.487061
2768.931641	3473.931396
2767.553711	3683.641602
2766.174805	3617.640137
2764.795898	3522.656250
2763.416992	3549.156494
2762.037109	3568.396973
2760.657227	3524.212158
2759.277344	3579.681152
2757.897461	3488.419189
2756.516602	3600.010010
2755.135742	3583.010498
2753.754883	3553.346436
2752.373047	3643.140869
2750.991211	3561.001953
2749.609375	3529.550049
2748.227539	3499.918701
2746.844727	3604.119629
2745.461914	3710.087646
2744.079102	3499.669922
2742.696289	3497.177002
2741.312500	3590.454346
2739.928711	3557.231445
2738.544922	3605.303467
2737.160156	3537.778320
2735.775391	3629.168213
2734.390625	3516.534424
2733.005859	3692.720215
2731.620117	3592.749023
2730.234375	3451.321777
2728.848633	3582.321533
2727.461914	3651.952881
2726.076172	3580.916748
2724.689453	3650.520752
2723.301758	3617.362061
2721.915039	3519.343506
2720.527344	3637.563232
2719.138672	3543.181396
2717.750977	3603.718750
2716.362305	3568.800293
2714.973633	3622.107666
2713.584961	3626.796631
2712.195313	3527.109863
2710.806641	3601.983643
2709.416016	3552.708252
2708.026367	3622.151855
2706.635742	3567.496826
2705.245117	3577.583008
2703.854492	3513.970703
2702.462891	3604.931641
2701.072266	3620.394287
2699.680664	3562.199707
2698.288086	3629.748535
2696.896484	3593.122559
2695.503906	3646.276123
2694.110352	3652.739746
2692.717773	3540.756592
2691.324219	3667.453125
2689.930664	3629.060547
2688.537109	3651.663574
2687.142578	3615.082275
2685.748047	3574.929199
2684.353516	3534.791992
2682.958984	3618.327637
2681.563477	3630.158936
2680.167969	3586.450928
2678.771484	3476.489990
2677.375977	3636.972168
2675.979492	3587.916992
2674.583008	3599.741699
2673.185547	3548.923096
2671.789063	3598.326172
2670.391602	3633.397705
2668.993164	3621.951416
2667.595703	3655.216064
2666.197266	3579.404785
2664.798828	3616.239258
2663.400391	3613.740723
2662.000977	3677.356689
2660.601563	3630.183838
2659.202148	3604.463379
2657.801758	3678.757813
2656.401367	3558.408447
2655.000977	3682.665039
2653.600586	3574.855225
2652.199219	3586.642334
2650.797852	3634.105469
2649.396484	3610.201904
2647.995117	3611.274414
2646.592773	3562.422607
2645.190430	3681.157959
2643.787109	3701.820557
2642.384766	3626.250000
2640.981445	3627.317383
2639.578125	3642.634033
2638.173828	3563.557373
2636.769531	3596.685547
2635.365234	3480.264648
2633.960938	3627.305420
2632.555664	3635.488037
2631.150391	3536.919189
2629.745117	3587.806885
2628.339844	3654.680176
2626.933594	3657.515869
2625.527344	3598.129639
2624.121094	3723.614502
2622.713867	3651.799072
2621.306641	3562.245117
2619.899414	3637.924805
2618.492188	3669.175049
2617.083984	3631.163330
2615.675781	3676.604248
2614.266602	3698.953369
2612.858398	3556.257324
2611.449219	3592.814453
2610.040039	3553.080322
2608.629883	3609.132324
2607.220703	3588.915283
2605.810547	3552.750488
2604.399414	3638.900879
2602.989258	3671.853027
2601.578125	3545.332031
2600.166992	3650.917969
2598.754883	3628.944336
2597.343750	3571.564453
2595.930664	3631.052246
2594.518555	3651.575928
2593.106445	3654.394043
2591.693359	3701.444580
2590.280273	3686.561523
2588.866211	3622.162598
2587.452148	3642.666748
2586.038086	3686.145508
2584.624023	3531.637207
2583.208984	3624.603271
2581.794922	3669.826172
2580.378906	3609.038574
2578.963867	3707.232178
2577.547852	3540.510498
2576.131836	3702.236084
2574.715820	3565.588379
2573.298828	3637.239990
2571.881836	3631.227783
2570.464844	3697.545410
2569.047852	3661.539551
2567.629883	3584.989502
2566.211914	3603.674072
2564.793945	3738.689453
2563.375000	3635.733643
2561.956055	3605.060547
2560.537109	3708.285156
2559.118164	3586.021484
2557.698242	3653.989258
2556.278320	3677.915039
2554.857422	3682.468018
2553.437500	3727.497314
2552.016602	3710.923584
2550.595703	3667.968018
2549.173828	3595.128418
2547.752930	3640.138428
2546.330078	3690.404785
2544.908203	3642.213135
2543.485352	3732.880859
2542.063477	3654.828125
2540.639648	3726.132324
2539.216797	3628.790771
2537.792969	3670.218262
2536.369141	3664.224121
2534.945313	3686.318604
2533.520508	3704.893799
2532.095703	3640.990967
2530.670898	3682.374023
2529.245117	3716.724365
2527.819336	3677.407715
2526.393555	3759.084229
2524.967773	3751.327637
2523.541016	3689.242920
2522.114258	3665.732178
2520.687500	3645.734619
2519.260742	3697.559082
2517.833008	3560.230957
2516.405273	3753.872070
2514.976563	3674.354004
2513.547852	3796.137939
2512.119141	3622.151855
2510.690430	3707.158447
2509.261719	3804.375000
2507.832031	3752.905518
2506.402344	3773.142334
2504.971680	3700.721924
2503.541016	3783.879883
2502.110352	3699.253662
2500.679688	3729.966797
2499.248047	3723.986572
2497.816406	3854.224854
2496.384766	3635.207764
2494.953125	3662.416992
2493.520508	3766.409668
2492.087891	3755.192139
2490.655273	3672.448975
2489.221680	3685.674072
2487.788086	3725.052979
2486.354492	3689.441406
2484.919922	3854.317139
2483.485352	3687.976318
2482.050781	3685.501221
2480.616211	3669.089355
2479.180664	3743.260742
2477.745117	3669.373535
2476.309570	3752.220703
2474.873047	3730.585205
2473.437500	3787.279785
2472.000000	3715.181885
2470.563477	3693.566162
2469.125977	3760.670410
2467.688477	3726.880127
2466.250977	3703.535645
2464.812500	3728.875488
2463.374023	3787.228027
2461.935547	3743.032471
2460.497070	3799.621338
2459.057617	3753.703125
2457.618164	3780.743652
2456.177734	3760.892090
2454.738281	3872.983154
2453.297852	3696.913086
2451.857422	3720.471924
2450.416016	3754.430908
2448.974609	3830.006592
2447.533203	3813.636230
2446.091797	3864.894775
2444.649414	3848.523682
2443.207031	3773.229004
2441.764648	3871.252197
2440.321289	3783.854980
2438.877930	3845.460693
2437.434570	3865.477295
2435.990234	3781.595947
2434.546875	3758.337891
2433.101563	3686.626465
2431.657227	3727.423584
2430.211914	3941.216309
2428.766602	3843.563965
2427.321289	3783.997559
2425.875977	3779.785889
2424.429688	3891.401123
2422.983398	3843.959229
2421.536133	3825.912842
2420.089844	3754.314453
2418.642578	3782.931641
2417.194336	3754.545410
2415.747070	3815.957520
2414.298828	3880.797852
2412.849609	3942.159912
2411.401367	3792.968506
2409.952148	3755.981201
2408.502930	3898.403809
2407.052734	3875.206543
2405.603516	3783.047607
2404.152344	3787.465088
2402.703125	3902.189697
2401.251953	3810.079834
2399.800781	3888.572998
2398.349609	3758.606201
2396.898438	3775.078369
2395.445313	3824.259277
2393.994141	3830.382568
2392.541016	3729.790039
2391.087891	3832.295654
2389.634766	3852.176758
2388.181641	3854.848389
2386.728516	3812.803711
2385.275391	3885.979492
2383.820313	3818.158203
2382.365234	3803.645752
2380.910156	3955.826660
2379.455078	3803.845215
2378.000000	3885.537354
2376.544922	3778.282715
2375.089844	3846.210449
2373.632813	3847.158936
2372.175781	3794.899414
2370.718750	3881.658936
2369.261719	3916.912842
2367.804688	3821.786377
2366.347656	3911.917969
2364.888672	3835.691406
2363.429688	3874.354004
2361.972656	3827.302490
2360.513672	3809.401367
2359.054688	3880.598145
2357.593750	3811.304443
2356.134766	3873.908936
2354.673828	3825.191162
2353.214844	3853.529053
2351.753906	3779.160889
2350.292969	3793.806152
2348.832031	3878.592041
2347.369141	3790.578369
2345.908203	3759.036621
2344.445313	3765.124023
2342.984375	3755.823242
2341.521484	3857.622803
2340.058594	3795.332764
2338.593750	3890.249268
2337.130859	3694.741211
2335.667969	3842.581543
2334.203125	3802.540771
2332.738281	3748.858643
2331.273438	3751.521729
2329.808594	3900.938232
2328.343750	3816.558105
2326.878906	3803.853760
2325.412109	3811.619141
2323.945313	3790.395020
2322.478516	3852.711426
2321.011719	3918.411377
2319.544922	3931.259033
2318.078125	3795.878174
2316.611328	3781.490723
2315.142578	3825.011963
2313.673828	3825.948486
2312.205078	3750.278564
2310.736328	3693.360596
2309.267578	3861.085693
2307.798828	3776.947021
2306.328125	3696.243652
2304.859375	3855.363525
2303.388672	3693.061768
2301.917969	3918.416504
2300.447266	3749.368408
2298.974609	3833.580811
2297.503906	3793.736328
2296.031250	3825.249023
2294.560547	3911.093262
2293.087891	3757.496094
2291.615234	3831.436035
2290.142578	3913.832275
2288.667969	3904.562500
2287.195313	3812.165039
2285.720703	3857.198242
2284.246094	3780.109863
2282.773438	3953.991455
2281.296875	3836.229492
2279.822266	3882.915527
2278.347656	3888.914307
2276.871094	3820.366699
2275.396484	3829.762939
2273.919922	3889.959717
2272.443359	3777.430664
2270.966797	3908.711670
2269.488281	3840.227783
2268.011719	3810.690430
2266.533203	3816.692383
2265.056641	3822.691650
2263.578125	3896.332764
2262.099609	3917.530273
2260.619141	3908.291016
2259.140625	3829.761475
2257.662109	3888.133545
2256.181641	3860.321533
2254.701172	3835.898682
2253.220703	4058.041504
2251.740234	3940.726318
2250.259766	3911.237061
2248.777344	3842.942139
2247.296875	3892.791016
2245.814453	3929.123291
2244.332031	3903.032715
2242.849609	3829.734375
2241.367188	3979.020508
2239.884766	3974.848877
2238.400391	3955.510498
2236.917969	3809.804199
2235.433594	3911.802734
2233.949219	3976.704834
2232.464844	3923.700928
2230.978516	3912.809570
2229.494141	3876.672607
2228.009766	3904.503174
2226.523438	3954.196533
2225.037109	3955.083008
2223.550781	3925.693604
2222.064453	3881.181396
2220.576172	3976.233154
2219.089844	4009.051514
2217.601563	3840.183838
2216.115234	3832.689453
2214.626953	3883.995605
2213.138672	3947.037842
2211.648438	3944.563477
2210.160156	3913.548584
2208.669922	3966.474854
2207.181641	3843.164307
2205.691406	3927.963135
2204.201172	4026.147705
2202.710938	3981.728760
2201.218750	3944.034912
2199.728516	4008.625488
2198.236328	4019.551025
2196.744141	3971.816406
2195.251953	3949.233887
2193.759766	4008.744873
2192.267578	4014.636230
2190.775391	3889.912354
2189.281250	3947.724365
2187.787109	4002.165283
2186.294922	4074.992432
2184.800781	3987.165771
2183.304688	4044.910645
2181.810547	3965.487549
2180.316406	4014.852295
2178.820313	3990.636963
2177.324219	3981.474365
2175.828125	3851.992676
2174.332031	4004.929932
2172.835938	4104.350098
2171.337891	4040.056641
2169.841797	3992.486816
2168.343750	4000.028320
2166.845703	3949.147217
2165.347656	4056.821045
2163.849609	3944.215820
2162.351563	3921.733887
2160.851563	4082.716309
2159.353516	3956.833984
2157.853516	4179.426758
2156.353516	4035.240723
2154.853516	4029.426270
2153.353516	3971.965088
2151.851563	4081.102783
2150.351563	3972.025879
2148.849609	4072.793457
2147.347656	4141.889648
2145.845703	4029.537354
2144.343750	3995.441406
2142.839844	3991.306396
2141.337891	4148.522949
2139.833984	4081.161621
2138.330078	4053.732910
2136.826172	4116.084473
2135.322266	4058.742188
2133.818359	4054.597900
2132.314453	4118.572266
2130.808594	4059.602539
2129.302734	4140.156250
2127.796875	4047.998047
2126.291016	4116.900879
2124.785156	4026.444092
2123.279297	4136.807129
2121.771484	4067.949951
2120.263672	4088.689697
2118.757813	4122.687988
2117.250000	4234.599609
2115.740234	4188.984863
2114.232422	4111.898438
2112.724609	4034.843262
2111.214844	4115.204102
2109.705078	4117.683594
2108.195313	4135.065918
2106.685547	4180.587402
2105.175781	4151.600098
2103.664063	4081.249023
2102.154297	4070.494385
2100.642578	3952.211914
2099.130859	4227.629883
2097.619141	4170.548828
2096.107422	4143.250488
2094.595703	4140.757813
2093.082031	4163.056152
2091.570313	4097.771973
2090.056641	4167.977051
2088.542969	4096.110840
2087.029297	4215.827148
2085.513672	4122.517578
2084.000000	4195.960938
2082.484375	4183.558105
2080.968750	4162.910156
2079.455078	4257.745605
2077.937500	4148.027344
2076.421875	4114.206543
2074.906250	4281.534180
2073.388672	4213.084961
2071.873047	4248.485840
2070.355469	4150.413086
2068.837891	4169.338379
2067.320313	4242.606445
2065.800781	4129.773926
2064.283203	4135.520996
2062.763672	4154.433594
2061.244141	4219.416016
2059.724609	4063.900879
2058.205078	4276.921875
2056.685547	4269.475098
2055.164063	4199.547852
2053.644531	4215.134766
2052.123047	4173.187988
2050.601563	4290.658203
2049.080078	4192.851563
2047.558594	4349.692871
2046.035156	4248.629395
2044.513672	4298.666992
2042.990234	4273.169434
2041.466797	4308.409668
2039.943359	4297.688477
2038.419922	4180.330566
2036.896484	4336.949707
2035.371094	4198.311035
2033.847656	4217.133301
2032.322266	4331.026855
2030.796875	4243.281738
2029.271484	4286.662109
2027.744141	4289.066895
2026.218750	4327.506348
2024.691406	4228.368164
2023.164063	4391.238281
2021.636719	4323.229492
2020.109375	4286.344238
2018.582031	4280.563477
2017.054688	4317.320313
2015.525391	4215.032227
2013.996094	4307.387207
2012.468750	4362.099609
2010.939453	4305.634277
2009.408203	4308.026855
2007.878906	4369.240723
2006.347656	4404.291504
2004.818359	4293.963867
2003.287109	4324.116211
2001.755859	4280.787109
2000.224609	4291.341797
1998.691406	4323.107422
1997.160156	4279.804199
1995.626953	4453.483398
1994.093750	4309.049805
1992.560547	4311.433594
1991.027344	4264.906738
1989.494141	4321.087402
1987.960938	4230.576172
1986.425781	4316.067871
1984.890625	4315.188477
1983.355469	4379.455566
1981.820313	4357.395020
1980.285156	4387.438477
1978.750000	4199.363281
1977.212891	4367.749512
1975.675781	4435.193359
1974.138672	4367.595703
1972.601563	4501.690918
1971.064453	4326.790527
1969.527344	4213.737305
1967.988281	4359.158203
1966.451172	4444.394531
1964.912109	4399.622070
1963.373047	4382.480957
1961.833984	4371.842773
1960.292969	4304.379883
1958.753906	4381.422852
1957.212891	4440.580566
1955.671875	4304.991211
1954.130859	4364.139648
1952.589844	4379.469238
1951.048828	4464.525391
1949.505859	4487.934570
1947.964844	4461.081543
1946.421875	4502.309082
1944.878906	4415.510254
1943.335938	4364.387695
1941.792969	4395.890625
1940.248047	4394.992676
1938.705078	4439.428223
1937.160156	4338.161133
1935.615234	4346.985352
1934.070313	4410.819336
1932.525391	4532.865234
1930.978516	4496.356445
1929.433594	4374.158203
1927.886719	4384.581543
1926.339844	4359.439453
1924.792969	4452.280273
1923.246094	4423.902832
1921.699219	4445.614258
1920.150391	4499.618164
1918.601563	4385.665527
1917.052734	4465.489746
1915.503906	4461.348633
1913.955078	4524.986816
1912.406250	4453.070313
1910.855469	4426.350098
1909.306641	4541.563965
1907.755859	4377.778320
1906.205078	4501.015625
1904.654297	4487.200195
1903.101563	4512.065430
1901.550781	4445.086426
1899.998047	4548.877930
1898.447266	4489.970215
1896.894531	4505.152832
1895.339844	4618.526855
1893.787109	4587.000977
1892.234375	4578.016602
1890.679688	4641.431641
1889.125000	4519.844727
1887.570313	4469.066406
1886.015625	4590.346191
1884.460938	4509.031250
1882.906250	4540.250977
1881.349609	4566.637207
1879.792969	4665.305176
1878.236328	4625.801270
1876.679688	4631.276855
1875.123047	4644.777832
1873.566406	4544.303711
1872.007813	4594.728027
1870.449219	4516.768555
1868.890625	4538.301758
1867.332031	4635.208008
1865.773438	4639.068359
1864.214844	4658.959473
1862.654297	4518.552734
1861.093750	4600.959473
1859.533203	4643.275879
1857.972656	4507.763672
1856.412109	4660.590820
1854.851563	4621.204590
1853.289063	4759.536621
1851.728516	4619.309082
1850.166016	4656.767578
1848.603516	4670.211426
1847.039063	4632.462402
1845.476563	4597.926758
1843.914063	4721.701172
1842.349609	4751.105957
1840.785156	4595.096191
1839.220703	4640.494141
1837.656250	4674.689453
1836.091797	4587.474609
1834.525391	4714.291504
1832.958984	4729.290039
1831.392578	4675.640137
1829.826172	4649.143555
1828.259766	4643.401855
1826.693359	4727.000977
1825.125000	4794.615723
1823.558594	4629.377930
1821.990234	4649.153320
1820.421875	4815.571289
1818.853516	4647.243164
1817.285156	4558.652344
1815.714844	4627.809570
1814.144531	4679.417969
1812.576172	4645.016113
1811.005859	4609.035645
1809.433594	4692.450195
1807.863281	4662.839844
1806.292969	4757.346191
1804.720703	4716.599121
1803.148438	4597.937012
1801.576172	4749.641602
1800.003906	4661.226563
1798.431641	4738.150879
1796.857422	4732.408691
1795.285156	4667.883301
1793.710938	4762.230957
1792.136719	4781.896973
1790.562500	4917.465332
1788.986328	4722.779297
1787.412109	4772.596680
1785.835938	4735.117188
1784.259766	4776.978027
1782.683594	4864.820801
1781.107422	4746.465820
1779.531250	4712.192383
1777.955078	4799.993164
1776.376953	4729.270508
1774.798828	4769.494629
1773.220703	4673.458984
1771.642578	4680.415527
1770.064453	4839.392090
1768.484375	4873.226563
1766.906250	4823.151855
1765.326172	4834.818848
1763.746094	4829.075684
1762.166016	4850.227539
1760.583984	4849.228027
1759.003906	4666.380371
1757.421875	4851.972168
1755.841797	4893.648926
1754.259766	4873.676270
1752.675781	4713.093262
1751.093750	4838.494141
1749.511719	4728.521973
1747.927734	4942.291992
1746.343750	4781.825684
1744.759766	5008.122559
1743.175781	4817.726074
1741.591797	4821.465332
1740.005859	4818.893066
1738.421875	4890.443359
1736.835938	4720.724121
1735.250000	4784.382324
1733.664063	4911.057129
1732.076172	4903.740723
1730.490234	4904.303711
1728.902344	4827.686523
1727.316406	4859.760254
1725.728516	4945.351563
1724.138672	4851.457031
1722.550781	4910.259766
1720.962891	4958.023438
1719.373047	4810.696289
1717.783203	4853.741699
1716.193359	4796.128906
1714.603516	4858.025391
1713.013672	4822.440918
1711.421875	5000.598633
1709.830078	4979.139648
1708.240234	4912.133789
1706.648438	4962.946777
1705.054688	4947.789063
1703.462891	5025.261719
1701.871094	5083.866699
1700.277344	4961.983398
1698.683594	4891.924316
1697.089844	4926.990723
1695.496094	5026.341797
1693.902344	4998.647461
1692.306641	4974.099121
1690.710938	5034.195313
1689.117188	4959.505371
1687.521484	4942.812988
1685.923828	5009.143066
1684.328125	4997.144531
1682.730469	4992.979004
1681.134766	4938.723633
1679.537109	4994.042969
1677.939453	4983.621094
1676.341797	5049.858398
1674.742188	4978.429688
1673.144531	5050.895020
1671.544922	5146.781738
1669.945313	5005.037109
1668.345703	5082.139160
1666.746094	4931.091797
1665.144531	5023.797852
1663.544922	5085.229492
1661.943359	5168.496094
1660.341797	5022.238281
1658.740234	5063.339844
1657.138672	5051.367676
1655.535156	5044.080078
1653.933594	5189.661621
1652.330078	5112.168945
1650.726563	4981.694336
1649.123047	5089.784668
1647.519531	5088.729492
1645.914063	4980.155273
1644.310547	5038.324219
1642.705078	5101.141113
1641.099609	5031.562988
1639.494141	4966.684570
1637.888672	5096.411621
1636.281250	5188.732910
1634.675781	5086.517578
1633.068359	5094.796387
1631.460938	5110.848145
1629.853516	5120.672852
1628.244141	5150.704590
1626.636719	5015.959473
1625.027344	5119.040039
1623.417969	5111.762695
1621.808594	5113.808594
1620.199219	5198.166504
1618.589844	5166.032227
1616.978516	5166.512207
1615.369141	5084.729492
1613.757813	5007.635742
1612.146484	5147.779785
1610.535156	5263.046875
1608.921875	5134.786133
1607.310547	5246.906250
1605.697266	5283.020508
1604.083984	5164.133789
1602.470703	5153.763672
1600.857422	5148.044922
1599.242188	5218.224609
1597.628906	5150.551758
1596.013672	5212.959473
1594.398438	5109.712402
1592.783203	5111.745605
1591.167969	5302.546387
1589.550781	5114.261230
1587.935547	5213.729980
1586.318359	5170.895020
1584.701172	5298.137695
1583.083984	5111.554688
1581.466797	5187.759277
1579.847656	5146.509277
1578.230469	5120.723145
1576.611328	5203.055176
1574.992188	5132.489746
1573.373047	5177.733887
1571.751953	5147.331543
1570.132813	5243.476074
1568.511719	5189.930176
1566.890625	5142.576172
1565.269531	5118.373535
1563.648438	5186.689941
1562.027344	5165.570801
1560.404297	5195.318848
1558.783203	5197.318848
1557.160156	5222.425781
1555.537109	5318.371582
1553.912109	5183.292969
1552.289063	5192.990234
1550.664063	5245.782715
1549.041016	5307.786133
1547.416016	5089.735840
1545.791016	5228.659668
1544.164063	5275.247559
1542.539063	5244.932617
1540.912109	5243.839844
1539.287109	5301.153320
1537.660156	5206.310059
1536.033203	5188.324707
1534.404297	5142.697754
1532.777344	5219.947754
1531.148438	5289.487793
1529.519531	5243.867188
1527.890625	5126.131348
1526.261719	5318.402832
1524.632813	5231.382324
1523.001953	5374.469238
1521.373047	5301.273926
1519.742188	5188.246582
1518.111328	5202.492676
1516.478516	5206.004395
1514.847656	5276.932129
1513.214844	5205.363770
1511.583984	5274.729492
1509.951172	5279.753418
1508.318359	5232.723145
1506.683594	5173.467773
1505.050781	5293.280762
1503.416016	5247.806152
1501.783203	5268.125488
1500.148438	5234.909180
1498.511719	5316.382813
1496.876953	5382.534668
1495.242188	5156.739258
1493.605469	5170.942383
1491.968750	5328.747070
1490.332031	5188.638184
1488.695313	5263.909180
1487.058594	5119.291992
1485.419922	5264.762207
1483.781250	5280.449219
1482.142578	5245.777344
1480.503906	5206.543457
1478.865234	5200.879395
1477.226563	5193.692383
1475.585938	5178.885254
1473.945313	5263.159180
1472.304688	5294.060547
1470.664063	5218.297363
1469.023438	5229.392090
1467.380859	5273.986816
1465.740234	5256.134277
1464.097656	5338.762207
1462.455078	5276.765137
1460.812500	5315.224609
1459.167969	5317.155273
1457.525391	5308.437012
1455.880859	5415.297363
1454.236328	5312.296875
1452.591797	5302.063965
1450.947266	5317.671387
1449.302734	5448.750488
1447.656250	5301.772949
1446.009766	5369.009277
1444.363281	5247.923340
1442.716797	5350.060547
1441.070313	5324.654297
1439.421875	5372.100098
1437.775391	5313.320313
1436.126953	5363.781738
1434.478516	5370.240723
1432.830078	5397.924805
1431.179688	5307.352051
1429.531250	5386.568359
1427.880859	5385.439453
1426.230469	5341.890625
1424.580078	5369.549805
1422.929688	5406.283203
1421.279297	5361.242188
1419.626953	5317.733398
1417.974609	5333.266113
1416.322266	5318.529785
1414.669922	5436.923340
1413.017578	5305.711426
1411.363281	5306.110840
1409.710938	5389.659668
1408.056641	5264.584961
1406.402344	5370.775391
1404.748047	5356.050293
1403.091797	5336.799316
1401.437500	5399.109375
1399.781250	5272.652832
1398.125000	5315.324219
1396.468750	5265.911133
1394.812500	5320.637695
1393.154297	5321.029297
1391.498047	5395.329102
1389.839844	5385.147949
1388.181641	5350.847168
1386.523438	5331.634766
1384.865234	5291.331055
1383.205078	5427.333984
1381.544922	5301.159180
1379.884766	5250.343750
1378.224609	5366.693359
1376.564453	5260.181152
1374.904297	5313.261719
1373.242188	5346.756836
1371.580078	5286.956055
1369.919922	5216.650391
1368.255859	5244.127930
1366.593750	5295.650879
1364.931641	5190.811523
1363.267578	5323.483398
1361.603516	5328.374512
1359.939453	5313.732910
1358.275391	5279.570801
1356.611328	5270.951660
1354.945313	5331.399414
1353.279297	5355.795898
1351.613281	5294.639160
1349.947266	5215.502441
1348.281250	5224.905762
1346.615234	5322.792969
1344.947266	5221.207031
1343.279297	5245.594238
1341.611328	5277.464844
1339.943359	5274.854980
1338.275391	5237.787109
1336.605469	5332.550293
1334.935547	5267.030762
1333.267578	5333.299316
1331.597656	5342.654785
1329.925781	5233.770508
1328.255859	5325.440918
1326.583984	5385.655273
1324.912109	5287.300293
1323.240234	5254.783203
1321.568359	5250.685547
1319.896484	5348.232910
1318.224609	5281.350586
1316.550781	5196.566406
1314.876953	5249.248047
1313.203125	5404.958496
1311.529297	5385.900879
1309.853516	5239.957031
1308.179688	5335.868164
1306.503906	5295.944824
1304.828125	5353.012695
1303.152344	5319.068359
1301.474609	5253.820801
1299.798828	5324.279297
1298.121094	5406.633301
1296.443359	5333.956055
1294.765625	5247.898438
1293.087891	5303.400391
1291.410156	5324.622070
1289.730469	5411.354492
1288.050781	5264.312500
1286.371094	5188.777832
1284.691406	5332.032715
1283.011719	5403.811035
1281.332031	5337.219238
1279.650391	5333.117676
1277.968750	5199.658203
1276.287109	5443.845215
1274.605469	5375.813477
1272.921875	5380.621582
1271.240234	5302.231934
1269.556641	5219.418945
1267.873047	5268.806641
1266.189453	5324.111816
1264.505859	5284.392578
1262.820313	5275.855469
1261.134766	5350.411621
1259.451172	5284.009277
1257.765625	5403.025391
1256.078125	5312.914551
1254.392578	5294.001465
1252.705078	5372.919922
1251.019531	5311.026855
1249.332031	5388.426270
1247.642578	5405.061523
1245.955078	5358.009277
1244.267578	5393.891602
1242.578125	5357.223145
1240.888672	5314.649902
1239.199219	5298.728516
1237.509766	5328.673828
1235.818359	5231.407715
1234.128906	5163.757324
1232.437500	5207.017090
1230.746094	5290.167480
1229.054688	5195.945801
1227.363281	5268.720215
1225.669922	5272.036133
1223.976563	5365.438965
1222.283203	5352.490234
1220.589844	5126.968750
1218.896484	5276.427246
1217.203125	5244.321777
1215.507813	5281.568359
1213.812500	5218.500000
1212.117188	5269.007813
1210.421875	5266.416992
1208.726563	5182.754395
1207.029297	5262.711426
1205.332031	5280.750488
1203.636719	5300.254883
1201.937500	5200.453613
1200.240234	5208.186035
1198.542969	5314.550293
1196.843750	5301.648438
1195.144531	5262.264160
1193.445313	5221.424805
1191.746094	5214.433594
1190.046875	5358.918457
1188.345703	5263.682129
1186.644531	5209.645996
1184.943359	5155.631836
1183.242188	5276.495605
1181.541016	5165.196777
1179.837891	5280.131348
1178.136719	5343.621582
1176.433594	5385.062988
1174.730469	5206.314941
1173.027344	5231.624512
1171.322266	5311.208984
1169.619141	5295.412598
1167.914063	5335.352051
1166.208984	5356.212402
1164.503906	5404.916992
1162.796875	5331.953125
1161.091797	5301.514160
1159.384766	5275.482910
1157.677734	5227.491699
1155.970703	5287.885254
1154.263672	5276.513184
1152.554688	5241.725098
1150.847656	5259.636230
1149.138672	5325.822754
1147.429688	5332.004395
1145.720703	5341.108887
1144.009766	5313.653320
1142.300781	5252.585938
1140.589844	5282.162598
1138.878906	5269.349121
1137.167969	5198.102051
1135.455078	5335.758301
1133.744141	5268.908203
1132.031250	5318.888184
1130.318359	5233.093262
1128.605469	5180.900391
1126.892578	5213.357422
1125.179688	5326.033203
1123.464844	5270.936035
1121.750000	5307.726563
1120.035156	5271.608398
1118.320313	5305.467285
1116.605469	5288.308105
1114.888672	5228.905273
1113.171875	5304.992188
1111.455078	5236.872559
1109.738281	5154.221680
1108.021484	5289.958496
1106.302734	5256.813477
1104.585938	5392.469727
1102.867188	5202.202637
1101.148438	5301.451172
1099.429688	5266.876465
1097.708984	5264.300293
1095.990234	5225.386719
1094.269531	5227.179688
1092.548828	5298.710449
1090.828125	5201.709961
1089.105469	5257.239746
1087.384766	5209.656250
1085.662109	5256.450195
1083.939453	5281.453613
1082.216797	5251.306152
1080.492188	5154.438477
1078.769531	5180.896973
1077.044922	5155.139648
1075.320313	5196.084473
1073.595703	5202.223145
1071.871094	5214.155762
1070.146484	5159.435059
1068.419922	5209.033691
1066.693359	5199.232422
1064.966797	5118.485840
1063.240234	5202.803711
1061.513672	5175.641113
1059.785156	5047.198730
1058.056641	5135.816895
1056.328125	5137.613281
1054.599609	5046.858398
1052.871094	5119.515137
1051.140625	5116.976563
1049.412109	5102.876953
1047.681641	5002.091797
1045.951172	5053.026855
1044.218750	4952.294922
1042.488281	5056.643555
1040.755859	5044.013672
1039.023438	4975.100098
1037.291016	4919.202637
1035.558594	4974.416504
1033.826172	5041.145020
1032.091797	4963.637207
1030.357422	4959.692383
1028.623047	4893.766113
1026.888672	4987.835938
1025.154297	4893.114258
1023.417969	4905.032227
1021.681641	4963.032715
1019.945313	4989.329590
1018.208984	4998.339355
1016.472656	4964.166016
1014.734375	4996.200684
1012.998047	4855.578613
1011.259766	4952.349609
1009.521484	4905.270996
1007.783203	4953.105469
1006.042969	4858.610352
1004.302734	4884.875977
1002.564453	4902.509277
1000.824219	4976.159180
999.082031	4884.611328
997.341797	4833.308105
995.599609	4793.511230
993.859375	4878.603027
992.117188	4820.157715
990.373047	4780.388672
988.630859	4915.630859
986.886719	4907.407227
985.144531	4932.163574
983.400391	4901.003906
981.656250	4657.750488
979.910156	4761.349609
978.166016	4783.250000
976.419922	4839.513672
974.673828	4723.921875
972.927734	4717.182617
971.181641	4767.698242
969.433594	4862.553223
967.687500	4748.485352
965.939453	4813.264648
964.191406	4837.973633
962.441406	4713.975098
960.693359	4754.418457
958.943359	4713.381836
957.195313	4850.969238
955.445313	4724.215820
953.693359	4633.222656
951.943359	4680.777832
950.191406	4715.463867
948.441406	4747.280273
946.689453	4747.687988
944.935547	4665.346191
943.183594	4684.313965
941.431641	4717.534180
939.677734	4747.888672
937.923828	4684.147461
936.169922	4567.701660
934.414063	4727.730957
932.660156	4624.146484
930.904297	4794.064453
929.148438	4632.127441
927.392578	4631.131836
925.636719	4665.720215
923.878906	4589.296387
922.123047	4528.555176
920.365234	4624.306641
918.607422	4557.894531
916.849609	4593.881836
915.089844	4520.396973
913.330078	4628.857910
911.572266	4559.659180
909.812500	4544.472656
908.050781	4638.654297
906.291016	4583.696777
904.529297	4551.478027
902.767578	4603.015137
901.005859	4573.643555
899.244141	4561.309082
897.482422	4473.801758
895.718750	4418.949219
893.957031	4528.589844
892.193359	4368.850586
890.427734	4448.692383
888.664063	4504.411621
886.898438	4417.027832
885.134766	4442.986816
883.369141	4389.637207
881.603516	4442.488770
879.835938	4396.238770
878.070313	4475.952637
876.302734	4400.003906
874.535156	4403.299316
872.767578	4366.996094
871.000000	4459.371094
869.230469	4389.145020
867.460938	4371.239746
865.693359	4274.215820
863.921875	4328.388184
862.152344	4395.248047
860.382813	4333.582031
858.611328	4281.824707
856.839844	4338.770508
855.068359	4346.301758
853.296875	4298.806641
851.523438	4288.005859
849.751953	4306.823730
847.978516	4174.771973
846.205078	4303.556152
844.431641	4295.581055
842.656250	4200.250488
840.880859	4188.074219
839.107422	4284.349609
837.332031	4282.017090
835.554688	4154.391602
833.779297	4180.236816
832.001953	4232.807129
830.226563	4271.285645
828.447266	4162.057129
826.669922	4189.283691
824.892578	4060.435547
823.113281	4233.860840
821.333984	4206.244629
819.554688	4240.461914
817.775391	4201.617676
815.996094	4175.429688
814.214844	4132.402832
812.435547	4160.990234
810.654297	4190.968750
808.871094	4093.239746
807.089844	4245.274414
805.306641	4143.367188
803.525391	4188.748535
801.742188	4246.727539
799.958984	4119.654297
798.173828	4208.454102
796.390625	4117.872559
794.605469	4121.184082
792.820313	4162.308105
791.035156	4112.400391
789.248047	4129.708984
787.462891	3977.658936
785.675781	4085.943115
783.888672	4194.180176
782.101563	4130.331543
780.314453	4069.306641
778.525391	4177.476563
776.736328	3971.097900
774.947266	4116.973633
773.158203	4124.464844
771.369141	4127.762695
769.578125	4111.506348
767.789063	4061.746338
765.998047	4087.389893
764.207031	4167.452637
762.414063	4013.060059
760.623047	4076.363281
758.830078	4018.294922
757.037109	3993.718506
755.244141	4010.976807
753.451172	4005.926025
751.656250	3998.089844
749.863281	3997.223145
748.068359	3898.850342
746.271484	4027.520752
744.476563	3951.460938
742.681641	3911.626953
740.884766	4010.983643
739.087891	3922.453369
737.291016	3903.517578
735.494141	3888.762451
733.695313	3823.954590
731.896484	4002.464111
730.097656	3951.558350
728.298828	3943.752441
726.500000	3838.697510
724.701172	3908.704346
722.900391	3853.695801
721.099609	3879.239014
719.298828	3858.963135
717.496094	3833.144531
715.695313	3880.875244
713.892578	3832.867188
712.089844	3899.993408
710.287109	3876.960449
708.484375	3734.714844
706.679688	3810.133789
704.876953	3788.520508
703.072266	3777.999512
701.267578	3749.476318
699.460938	3815.132080
697.656250	3760.307373
695.849609	3776.100342
694.042969	3740.681885
692.236328	3782.760254
690.429688	3806.837158
688.621094	3794.945557
686.812500	3854.958984
685.005859	3718.645752
683.195313	3744.096680
681.386719	3729.464355
679.578125	3749.375488
677.767578	3672.594238
675.957031	3758.791260
674.146484	3759.354004
672.333984	3682.619873
670.523438	3767.377930
668.710938	3696.193604
666.898438	3682.974609
665.085938	3722.166504
663.273438	3693.780273
661.458984	3742.601563
659.644531	3642.557129
657.830078	3647.275391
656.015625	3675.410400
654.201172	3644.309570
652.384766	3708.234131
650.570313	3653.735352
648.753906	3652.939453
646.935547	3696.178467
645.119141	3616.952881
643.300781	3634.046143
641.484375	3550.742676
639.666016	3664.084717
637.847656	3686.654053
636.027344	3624.007080
634.208984	3544.899414
632.388672	3511.157959
630.568359	3577.688477
628.748047	3557.685059
626.925781	3570.636963
625.105469	3648.090332
623.283203	3593.779053
621.460938	3554.581787
619.636719	3531.860840
617.814453	3531.090088
615.990234	3642.741455
614.167969	3595.342773
612.343750	3637.040527
610.517578	3554.040527
608.693359	3547.785400
606.867188	3590.834961
605.041016	3564.036133
603.214844	3481.123779
601.388672	3476.257813
599.562500	3480.971680
597.734375	3526.723633
595.906250	3516.379395
594.078125	3482.793457
592.250000	3520.311768
590.419922	3563.280518
588.591797	3546.103760
586.761719	3502.976074
584.931641	3500.844727
583.099609	3482.326416
581.269531	3504.775635
579.437500	3434.393555
577.605469	3534.632080
575.773438	3506.570801
573.941406	3374.847900
572.107422	3470.941650
570.273438	3512.451904
568.439453	3439.432373
566.605469	3355.541260
564.771484	3470.631104
562.935547	3468.509521
561.101563	3368.321777
559.265625	3407.075195
557.427734	3453.979980
555.591797	3291.247803
553.753906	3447.024902
551.917969	3361.916260
550.080078	3387.024902
548.240234	3432.521973
546.402344	3380.103271
544.562500	3292.364258
542.724609	3366.391602
540.884766	3314.021240
539.042969	3227.712158
537.203125	3316.644043
535.361328	3227.656006
533.519531	3232.379150
531.677734	3322.608154
529.835938	3183.468506
527.994141	3296.731934
526.150391	3129.174316
524.306641	3235.619141
522.462891	3179.322510
520.619141	3203.024414
518.773438	3177.928467
516.927734	3178.586670
515.082031	3177.889648
513.236328	3166.358154
511.390625	3046.511230
509.542969	3181.213867
507.697266	3127.732910
505.849609	3058.037842
504.000000	3077.659180
502.152344	3090.509033
500.302734	3096.592041
498.455078	3024.260254
496.605469	2997.915527
494.753906	3055.364746
492.904297	3046.587646
491.052734	3035.113037
489.203125	2995.283691
487.351563	3043.231201
485.498047	3029.064453
483.646484	3052.691162
481.792969	3065.513184
479.939453	2936.688477
478.085938	2994.035889
476.232422	3016.300293
474.376953	2945.537842
472.523438	3013.627197
470.667969	2969.845459
468.812500	2989.400391
466.955078	3007.599854
465.099609	2912.677246
463.242188	2988.775635
461.384766	2965.236572
459.527344	2899.990723
457.667969	2953.169434
455.810547	2896.025146
453.951172	2836.216309
452.091797	2839.625977
450.232422	2912.933594
448.371094	2928.419922
446.511719	2869.999512
444.650391	2959.371582
442.789063	2903.655518
440.927734	2825.137207
439.064453	2828.542725
437.201172	2801.076904
435.337891	2838.032471
433.474609	2849.481689
431.611328	2808.616211
429.748047	2865.659668
427.882813	2743.026855
426.017578	2755.826416
424.152344	2790.061768
422.285156	2790.786865
420.419922	2788.832520
418.552734	2782.861328
416.685547	2709.947266
414.818359	2745.492432
412.949219	2720.797852
411.082031	2729.564209
409.212891	2758.392578
407.343750	2736.385498
405.472656	2656.891113
403.603516	2664.326416
401.732422	2726.556641
399.861328	2685.867920
397.990234	2677.259766
396.119141	2702.046875
394.246094	2653.377441
392.375000	2631.430908
390.501953	2648.202637
388.628906	2651.621582
386.753906	2688.393799
384.880859	2610.434570
383.005859	2541.844727
381.130859	2577.282959
379.253906	2536.723633
377.378906	2640.115723
375.501953	2592.897949
373.626953	2584.332764
371.748047	2578.434570
369.871094	2644.442383
367.994141	2496.089844
366.115234	2487.552734
364.236328	2564.181396
362.357422	2555.632813
360.478516	2473.933594
358.597656	2562.482178
356.716797	2502.089111
354.835938	2505.523682
352.955078	2466.431885
351.074219	2527.002441
349.191406	2460.028320
347.308594	2462.140381
345.425781	2407.159424
343.542969	2480.963135
341.658203	2427.329102
339.775391	2413.523926
337.890625	2428.908691
336.005859	2408.477539
334.119141	2460.983154
332.234375	2411.388916
330.347656	2414.831543
328.460938	2426.222900
326.574219	2363.420898
324.685547	2354.950684
322.798828	2301.461426
320.910156	2353.908203
319.021484	2386.477539
317.132813	2344.926270
315.242188	2374.836670
313.351563	2331.983154
311.460938	2257.409912
309.570313	2288.641357
307.679688	2297.387451
305.787109	2308.772705
303.896484	2248.803955
302.003906	2347.379150
300.111328	2321.765869
298.216797	2249.949951
296.322266	2244.170898
294.429688	2227.835938
292.535156	2226.022461
290.638672	2245.317383
288.744141	2226.354492
286.847656	2229.816650
284.951172	2188.453613
283.054688	2185.332031
281.158203	2184.847412
279.259766	2150.108643
277.361328	2269.494629
275.462891	2199.196289
273.564453	2196.075195
271.666016	2182.424805
269.765625	2154.304443
267.865234	2176.193359
265.964844	2138.878418
264.064453	2121.307129
262.162109	2132.669678
260.261719	2153.229004
258.359375	2136.979736
256.457031	2160.156494
254.552734	2157.049561
252.650391	2164.450684
250.746094	2111.446289
248.841797	2185.806641
246.937500	2081.633301
245.031250	2125.785889
243.126953	2066.277100
241.220703	2099.920410
239.314453	2108.633057
237.406250	2171.094727
235.500000	2095.898926
233.591797	2043.014404
231.683594	2063.522949
229.775391	2069.613525
227.865234	2066.534180
225.957031	2066.074707
224.046875	2082.632080
222.136719	2088.712646
220.226563	2011.050781
218.314453	2011.911499
216.402344	2001.001099
214.490234	2043.705078
212.578125	2040.635742
210.666016	1956.535522
208.751953	1977.006958
206.839844	1993.549927
204.925781	1994.412231
203.009766	1991.356567
201.095703	1992.218750
