#Wave		#Intensity
4001.644531	238.038208
4000.500000	181.258453
3999.354492	198.692703
3998.209961	240.133942
3997.064453	209.532990
3995.918945	255.321503
3994.772461	235.638153
3993.626953	237.776352
3992.480469	222.465485
3991.333984	200.618332
3990.187500	261.628082
3989.040039	204.904388
3987.893555	213.584518
3986.746094	257.126007
3985.598633	211.327499
3984.451172	239.605759
3983.302734	259.162292
3982.154297	276.534180
3981.006836	289.545624
3979.857422	261.196228
3978.708984	215.447311
3977.560547	228.462769
3976.411133	180.561218
3975.261719	193.578293
3974.112305	304.449249
3972.961914	252.211624
3971.811523	228.253067
3970.662109	228.211151
3969.511719	228.169235
3968.360352	230.299957
3967.209961	193.329529
3966.058594	228.043503
3964.907227	238.858826
3963.755859	299.604187
3962.604492	2611.287109
3961.452148	1178.444092
3960.299805	310.288300
3959.147461	266.842285
3957.995117	193.045517
3956.841797	245.057678
3955.689453	273.199921
3954.536133	190.771225
3953.382813	218.913071
3952.228516	257.879852
3951.075195	227.499222
3949.920898	259.951294
3948.766602	205.756943
3947.612305	216.546417
3946.458008	251.147659
3945.302734	255.430801
3944.147461	266.205170
3942.992188	216.387146
3941.836914	225.001236
3940.680664	231.449081
3939.525391	168.688843
3938.369141	211.903397
3937.211914	296.177795
3936.055664	263.701050
3934.898438	222.591873
3933.742188	207.426086
3932.584961	244.112869
3931.426758	263.506958
3930.269531	231.066040
3929.111328	259.091766
3927.953125	263.361481
3926.794922	256.838074
3925.636719	215.790588
3924.477539	207.120819
3923.319336	191.982910
3922.160156	273.902679
3921.000000	239.351181
3919.840820	243.618927
3918.680664	237.107498
3917.520508	215.512573
3916.360352	252.103256
3915.200195	208.970184
3914.040039	226.163162
3912.878906	260.578094
3911.717773	208.854706
3910.556641	202.357986
3909.394531	223.844177
3908.233398	210.891220
3907.071289	247.428787
3905.909180	217.266968
3904.746094	268.845215
3903.583984	236.540176
3902.420898	262.296204
3901.257813	199.910233
3900.094727	266.497833
3898.931641	208.431656
3897.767578	178.315842
3896.603516	251.314545
3895.439453	223.349518
3894.275391	274.841003
3893.111328	238.294739
3891.946289	229.665176
3890.781250	208.162735
3889.616211	263.910248
3888.451172	158.745972
3887.285156	231.640579
3886.119141	231.597839
3884.953125	240.131226
3883.787109	235.799652
3882.620117	182.175201
3881.454102	171.427368
3880.287109	239.954025
3879.120117	252.762039
3877.952148	256.998688
3876.785156	190.572189
3875.617188	239.776901
3874.449219	211.906540
3873.281250	256.808990
3872.112305	211.828293
3870.944336	213.928467
3869.775391	231.000076
3868.606445	186.049042
3867.436523	312.162567
3866.267578	290.727844
3865.097656	256.477203
3863.927734	243.608337
3862.757813	273.474609
3861.587891	262.743469
3860.416992	256.287750
3859.246094	183.638947
3858.075195	196.414673
3856.904297	194.243820
3855.732422	260.366669
3854.560547	185.637009
3853.388672	192.002792
3852.216797	281.552032
3851.044922	174.871216
3849.872070	194.028519
3848.699219	266.473419
3847.526367	255.767197
3846.353516	183.265945
3845.179688	213.060532
3844.005859	221.541977
3842.832031	249.188644
3841.658203	236.366013
3840.484375	229.935211
3839.309570	238.407227
3838.134766	227.721924
3836.959961	251.086136
3835.785156	265.931885
3834.609375	259.501495
3833.434570	195.653442
3832.258789	263.658020
3831.082031	227.469269
3829.906250	265.685944
3828.729492	284.762634
3827.552734	246.465317
3826.375977	214.555084
3825.199219	220.887115
3824.021484	216.599182
3822.844727	292.991699
3821.666992	191.046173
3820.489258	152.808640
3819.310547	205.829086
3818.131836	212.155640
3816.954102	250.297302
3815.774414	243.888641
3814.595703	199.315536
3813.416992	256.518219
3812.237305	220.437637
3811.057617	267.019226
3809.877930	190.692688
3808.697266	226.670410
3807.516602	222.392380
3806.336914	228.704056
3805.155273	207.489304
3803.974609	241.320389
3802.792969	198.946609
3801.612305	213.722168
3800.430664	215.798218
3799.248047	224.219330
3798.066406	169.190765
3796.883789	230.479691
3795.701172	295.974091
3794.518555	306.487762
3793.335938	226.124908
3792.152344	289.470734
3790.968750	240.828781
3789.785156	255.569122
3788.601563	190.057480
3787.417969	213.247177
3786.233398	227.984390
3785.048828	255.379578
3783.864258	213.128540
3782.678711	227.857544
3781.494141	170.861450
3780.308594	291.043274
3779.123047	177.123917
3777.937500	212.930908
3776.750977	210.783554
3775.564453	206.529556
3774.377930	250.739349
3773.191406	229.626190
3772.004883	181.139328
3770.817383	267.446808
3769.629883	225.287354
3768.442383	216.825150
3767.254883	231.517838
3766.066406	216.744644
3764.878906	178.833725
3763.690430	229.285370
3762.500977	237.655365
3761.312500	237.611237
3760.123047	203.929276
3758.933594	214.401276
3757.744141	182.837708
3756.554688	142.881088
3755.364258	260.499451
3754.173828	268.852722
3752.983398	218.402237
3751.792969	272.952087
3750.602539	222.519562
3749.411133	295.938019
3748.219727	249.716858
3747.028320	230.787811
3745.835938	255.917099
3744.644531	213.923706
3743.452148	249.531250
3742.259766	203.361618
3741.067383	234.765640
3739.874023	230.530518
3738.680664	209.534241
3737.487305	167.596222
3736.293945	259.725830
3735.100586	265.960052
3733.906250	282.660858
3732.711914	253.300766
3731.517578	284.648712
3730.323242	223.909912
3729.127930	232.237167
3727.932617	246.836823
3726.737305	240.516556
3725.541992	200.741684
3724.345703	217.429688
3723.150391	209.028107
3721.954102	194.359955
3720.757813	192.234283
3719.560547	231.891678
3718.364258	227.671051
3717.166992	269.395416
3715.969727	175.387604
3714.771484	217.106140
3713.574219	206.629868
3712.375977	277.541962
3711.177734	216.984894
3709.979492	258.664581
3708.780273	221.075317
3707.582031	225.204590
3706.382813	179.296188
3705.183594	210.529556
3703.983398	210.490341
3702.784180	212.534805
3701.583984	212.495209
3700.383789	241.616196
3699.182617	195.755951
3697.982422	249.854645
3696.781250	166.538727
3695.580078	172.751724
3694.378906	226.824448
3693.177734	220.540466
3691.975586	262.102997
3690.773438	218.378448
3689.571289	214.178940
3688.369141	182.953705
3687.166016	272.300781
3685.962891	247.311066
3684.759766	234.797806
3683.556641	222.289215
3682.352539	182.783203
3681.149414	284.507141
3679.945313	236.699020
3678.740234	184.756866
3677.536133	207.553268
3676.331055	209.589691
3675.126953	224.073898
3673.920898	190.842148
3672.715820	223.990295
3671.510742	207.359726
3670.304688	225.979919
3669.098633	234.229034
3667.891602	242.475067
3666.685547	219.637268
3665.478516	267.244507
3664.271484	234.054214
3663.064453	246.435852
3661.857422	163.569733
3660.649414	188.380585
3659.441406	219.391373
3658.233398	223.489090
3657.025391	198.619873
3655.816406	252.365616
3654.607422	213.022980
3653.398438	196.440811
3652.189453	212.943405
3650.980469	210.836609
3649.770508	243.863449
3648.560547	214.890350
3647.350586	177.664581
3646.139648	187.958801
3644.929688	245.746353
3643.718750	284.929901
3642.507813	183.724808
3641.295898	212.585587
3640.084961	214.609406
3638.873047	251.706299
3637.661133	233.094208
3636.449219	263.986572
3635.236328	237.131088
3634.023438	206.162399
3632.810547	228.797470
3631.597656	228.754684
3630.384766	257.558472
3629.170898	193.647736
3627.957031	228.626373
3626.743164	183.278748
3625.529297	236.776566
3624.314453	222.322479
3623.099609	201.699326
3621.884766	248.990326
3620.669922	257.173279
3619.454102	207.757141
3618.239258	197.435181
3617.023438	187.117081
3615.806641	256.980865
3614.590820	187.047043
3613.374023	256.884674
3612.157227	240.399048
3610.940430	213.648041
3609.723633	217.715881
3608.505859	234.103439
3607.288086	229.953308
3606.070313	236.068558
3604.852539	229.867188
3603.633789	203.148132
3602.415039	207.213318
3601.196289	178.457245
3599.977539	278.915405
3598.758789	239.904343
3597.539063	221.408676
3596.319336	245.963547
3595.099609	170.092926
3593.878906	272.507477
3592.659180	196.660263
3591.438477	219.153183
3590.217773	186.347687
3588.996094	241.592361
3587.775391	182.183823
3586.553711	210.802429
3585.332031	325.352478
3584.109375	196.402405
3582.887695	251.593399
3581.665039	286.312775
3580.442383	186.068420
3579.219727	286.205414
3577.996094	196.218353
3576.773438	237.052704
3575.549805	218.619675
3574.325195	245.134964
3573.101563	243.046585
3571.876953	222.580734
3570.652344	187.831070
3569.427734	177.589539
3568.203125	267.354767
3566.977539	226.494736
3565.752930	230.532455
3564.526367	175.416565
3563.300781	201.895126
3562.075195	256.909210
3560.848633	236.475189
3559.622070	185.475891
3558.395508	224.159546
3557.167969	258.753784
3555.940430	207.778992
3554.712891	224.033325
3553.485352	156.793884
3552.257813	213.769684
3551.029297	240.191299
3549.800781	250.321869
3548.572266	211.614517
3547.343750	193.265411
3546.114258	256.282837
3544.884766	199.293640
3543.655273	221.621704
3542.425781	254.105576
3541.195313	217.473511
3539.965820	219.464722
3538.734375	233.645386
3537.503906	219.382248
3536.273438	229.495697
3535.041992	294.430298
3533.810547	211.137894
3532.579102	211.098206
3531.346680	251.646698
3530.115234	174.496353
3528.882813	261.695313
3527.650391	210.939514
3526.416992	214.955612
3525.184570	206.805191
3523.951172	220.956131
3522.717773	277.663269
3521.483398	214.793961
3520.250000	249.195175
3519.015625	206.610779
3517.781250	212.647552
3516.545898	208.557892
3515.311523	182.200760
3514.076172	202.407196
3512.840820	240.819244
3511.605469	327.776276
3510.369141	258.934998
3509.133789	218.435272
3507.897461	258.837524
3506.660156	222.396637
3505.423828	220.333359
3504.186523	212.207779
3502.949219	224.291702
3501.711914	218.188675
3500.474609	232.286789
3499.236328	286.769684
3497.998047	197.874207
3496.759766	195.818192
3495.521484	209.909866
3494.282227	234.086136
3493.042969	191.672363
3491.803711	217.860168
3490.564453	225.886505
3489.324219	221.811020
3488.084961	213.704895
3486.844727	221.727448
3485.603516	233.777603
3484.363281	227.688721
3483.122070	211.529297
3481.880859	237.673828
3480.639648	251.725677
3479.397461	259.731934
3478.156250	263.709045
3476.914063	213.342667
3475.671875	205.253296
3474.428711	271.607574
3473.186523	229.314255
3471.943359	199.103775
3470.700195	255.367783
3469.456055	231.194931
3468.212891	207.031189
3466.968750	275.319641
3465.724609	285.313965
3464.479492	210.931808
3463.235352	182.773071
3461.990234	198.803528
3460.745117	248.959457
3459.499023	242.890396
3458.253906	234.816650
3457.007813	204.673309
3455.761719	256.796478
3454.515625	246.718781
3453.268555	230.628494
3452.021484	224.569702
3450.775391	236.555557
3449.527344	274.593140
3448.280273	208.410919
3447.032227	210.375137
3445.784180	224.357773
3444.536133	206.290070
3443.287109	252.307175
3442.039063	236.243042
3440.790039	230.193390
3439.541016	266.173370
3438.291016	234.108276
3437.041992	170.046524
3435.791992	254.021515
3434.541992	257.973114
3433.291016	247.927292
3432.041016	133.935410
3430.790039	221.851044
3429.539063	239.793640
3428.287109	225.763000
3427.036133	219.727753
3425.784180	275.606354
3424.532227	243.605927
3423.280273	249.549057
3422.027344	219.561646
3420.774414	195.572479
3419.521484	261.379089
3418.268555	195.498520
3417.014648	223.384628
3415.761719	215.365875
3414.507813	247.225159
3413.252930	263.125397
3411.999023	241.152649
3410.744141	213.210342
3409.489258	268.952820
3408.234375	195.202881
3406.978516	191.182968
3405.723633	199.111237
3404.467773	242.869736
3403.210938	266.708069
3401.955078	208.948120
3400.698242	192.991730
3399.441406	184.998276
3398.184570	234.684570
3396.927734	276.398132
3395.669922	190.857529
3394.412109	222.624954
3393.154297	184.823227
3391.896484	216.579742
3390.637695	218.525330
3389.378906	200.607971
3388.120117	242.272659
3386.861328	232.299438
3385.601563	266.001953
3384.341797	240.150284
3383.082031	222.245758
3381.822266	242.043259
3380.561523	170.588333
3379.300781	236.001907
3378.040039	230.008682
3376.779297	184.368561
3375.517578	208.118607
3374.256836	212.042572
3372.995117	231.815689
3371.732422	198.095505
3370.470703	158.446365
3369.208008	241.584885
3367.945313	190.063538
3366.682617	229.616562
3365.418945	186.033310
3364.155273	249.316513
3362.891602	221.572647
3361.627930	197.795197
3360.363281	219.511017
3359.099609	211.560577
3357.834961	219.427750
3356.569336	205.550964
3355.304688	203.535889
3354.039063	268.695404
3352.773438	215.310608
3351.507813	262.668579
3350.241211	195.483124
3348.975586	207.291245
3347.708984	260.545227
3346.442383	226.947083
3345.174805	203.227066
3343.907227	234.751740
3342.639648	171.592636
3341.372070	218.886963
3340.104492	205.044342
3338.835938	252.314346
3337.567383	210.878967
3336.298828	187.193436
3335.029297	228.529617
3333.760742	287.577484
3332.491211	220.565475
3331.221680	281.561340
3329.951172	263.790558
3328.681641	204.694077
3327.411133	228.269241
3326.139648	247.900513
3324.869141	196.709045
3323.597656	300.907654
3322.327148	235.961151
3321.054688	257.541962
3319.783203	261.424194
3318.510742	200.452621
3317.238281	192.555115
3315.965820	233.772476
3314.693359	231.763931
3313.419922	159.061935
3312.146484	217.932312
3310.873047	212.001923
3309.599609	276.727661
3308.325195	221.732468
3307.050781	223.652145
3305.776367	221.648117
3304.501953	194.150345
3303.226563	209.799332
3301.951172	203.878311
3300.675781	201.879532
3299.400391	227.316208
3298.124023	227.272949
3296.847656	211.558670
3295.571289	246.771484
3294.294922	256.515167
3293.017578	185.987030
3291.740234	230.971497
3290.462891	258.325714
3289.185547	244.580048
3287.907227	244.533478
3286.628906	201.457214
3285.350586	189.685715
3284.072266	232.662903
3282.792969	175.930023
3281.513672	295.115265
3280.234375	183.679138
3278.955078	205.134430
3277.674805	236.347961
3276.394531	195.291687
3275.114258	277.261353
3273.833984	212.786819
3272.552734	216.649872
3271.272461	224.414307
3269.990234	249.735275
3268.708984	255.539734
3267.426758	243.789139
3266.145508	276.891663
3264.862305	259.292755
3263.580078	202.716583
3262.296875	216.319717
3261.014648	284.474396
3259.731445	218.185318
3258.447266	167.503204
3257.164063	198.628708
3255.879883	216.113541
3254.595703	198.552933
3253.310547	206.299973
3252.026367	231.556732
3250.741211	180.929977
3249.456055	210.072144
3248.169922	192.529388
3246.884766	243.046280
3245.598633	235.223907
3244.312500	231.291748
3243.025391	240.963898
3241.739258	250.632339
3240.452148	223.389282
3239.165039	207.809479
3237.876953	250.488831
3236.589844	221.319962
3235.301758	196.044281
3234.013672	232.879425
3232.724609	215.372330
3231.436523	279.348572
3230.147461	145.466263
3228.857422	205.553055
3227.568359	205.513794
3226.278320	251.997070
3224.989258	205.435287
3223.698242	172.455154
3222.408203	226.667404
3221.117188	213.065384
3219.826172	232.390549
3218.535156	214.920181
3217.244141	197.456467
3215.952148	207.096115
3214.660156	164.484161
3213.368164	177.995895
3212.076172	220.517960
3210.783203	218.541809
3209.490234	230.101791
3208.197266	245.523865
3206.903320	233.879578
3205.610352	258.957611
3204.316406	226.061539
3203.022461	189.314468
3201.727539	206.660965
3200.432617	191.173096
3199.137695	210.443253
3197.842773	187.239349
3196.547852	279.840332
3195.251953	196.815536
3193.956055	204.494659
3192.660156	271.964417
3191.363281	202.487930
3190.067383	264.147980
3188.770508	208.193588
3187.472656	225.499878
3186.175781	281.339142
3184.877930	204.220825
3183.580078	215.739182
3182.282227	175.254532
3180.983398	188.699509
3179.684570	209.839874
3178.385742	211.724457
3177.086914	211.683899
3175.788086	209.719330
3174.488281	251.999725
3173.188477	238.488403
3171.887695	219.213455
3170.587891	232.629364
3169.287109	240.273544
3167.986328	217.165665
3166.685547	176.773560
3165.383789	224.766769
3164.082031	266.979431
3162.780273	243.884094
3161.478516	213.117676
3160.175781	180.443436
3158.873047	165.054901
3157.570313	209.157394
3156.267578	278.183563
3154.963867	226.340454
3153.660156	161.092819
3152.356445	281.858368
3151.052734	220.459152
3149.748047	256.833557
3148.443359	226.123489
3147.138672	212.668579
3145.833984	204.965530
3144.528320	201.095810
3143.222656	214.461044
3141.916992	216.334351
3140.610352	197.151886
3139.304688	227.733704
3137.998047	202.816299
3136.691406	212.342346
3135.383789	202.738464
3134.076172	269.628632
3132.768555	267.664978
3131.460938	231.294617
3130.153320	288.584961
3128.844727	217.830261
3127.536133	200.594604
3126.227539	233.027069
3124.917969	190.969116
3123.608398	238.665558
3122.298828	169.897232
3120.989258	221.396561
3119.678711	219.445801
3118.369141	188.877914
3117.057617	183.119156
3115.747070	219.319351
3114.436523	194.489349
3113.125000	238.298981
3111.813477	240.159210
3110.500977	221.056473
3109.189453	219.108688
3107.876953	280.024231
3106.564453	137.128357
3105.250977	249.449463
3103.937500	232.267044
3102.625000	262.677795
3101.310547	235.983932
3099.997070	194.078491
3098.682617	254.916824
3097.368164	279.593781
3096.053711	231.999191
3094.739258	178.719086
3093.423828	250.918961
3092.108398	231.865326
3090.792969	197.617661
3089.476563	260.273193
3088.160156	224.133759
3086.843750	188.008240
3085.527344	220.250092
3084.210938	248.682846
3082.893555	165.123993
3081.576172	212.532501
3080.257813	221.977814
3078.940430	221.935089
3077.622070	259.822693
3076.303711	250.291901
3074.984375	233.181641
3073.666016	227.450470
3072.346680	236.881943
3071.027344	214.100037
3069.707031	233.002060
3068.387695	242.426987
3067.067383	212.082748
3065.747070	248.013290
3064.425781	225.251114
3063.104492	236.562729
3061.783203	181.645157
3060.461914	251.605743
3059.140625	221.294724
3057.818359	236.380432
3056.496094	230.662842
3055.173828	243.850571
3053.850586	283.492523
3052.527344	256.983673
3051.204102	188.922150
3049.880859	215.329727
3048.556641	249.281082
3047.233398	292.659973
3045.909180	230.307312
3044.583984	262.348694
3043.259766	188.703674
3041.934570	201.873978
3040.608398	241.447525
3039.283203	196.138275
3037.957031	214.956238
3036.630859	273.356506
3035.304688	239.376404
3033.978516	188.448990
3032.651367	233.631653
3031.324219	227.935272
3029.997070	190.223297
3028.668945	199.601761
3027.341797	242.864685
3026.013672	244.700104
3024.684570	220.187576
3023.356445	259.658295
3022.027344	237.033524
3020.698242	221.940918
3019.368164	189.929688
3018.039063	251.937271
3016.708984	227.451660
3015.378906	189.819672
3014.047852	206.694351
3012.717773	232.955902
3011.386719	277.990417
3010.055664	204.696640
3008.723633	234.698486
3007.392578	262.811523
3006.060547	217.716034
3004.727539	200.785461
3003.395508	200.746658
3002.062500	208.210953
3000.729492	238.177292
2999.396484	253.131638
2998.062500	219.338348
2996.728516	178.060806
2995.394531	208.009766
2994.060547	179.865555
2992.725586	181.704010
2991.390625	241.600861
2990.055664	179.761215
2988.720703	220.913757
2987.384766	226.486389
2986.048828	271.356812
2984.712891	233.883026
2983.376953	164.621796
2982.040039	235.662872
2980.703125	254.317047
2979.366211	226.223587
2978.028320	196.271729
2976.690430	248.562744
2975.352539	171.904861
2974.014648	209.234970
2972.675781	183.045151
2971.336914	207.286514
2969.998047	203.512222
2968.659180	209.072983
2967.319336	253.825180
2965.979492	250.044022
2964.639648	223.876648
2963.299805	210.776352
2961.958984	195.816193
2960.618164	180.861832
2959.277344	214.382278
2957.935547	232.979065
2956.593750	212.435745
2955.251953	232.888794
2953.910156	230.980927
2952.567383	216.037048
2951.225586	229.029373
2949.881836	256.909973
2948.539063	201.021011
2947.195313	271.697968
2945.852539	295.832886
2944.507813	271.592621
2943.164063	176.686966
2941.819336	206.404739
2940.474609	202.646423
2939.129883	169.149078
2937.784180	230.444153
2936.439453	269.418701
2935.093750	256.362549
2933.747070	237.739441
2932.401367	228.408417
2931.054688	237.647202
2929.708008	185.625854
2928.360352	215.284210
2927.013672	165.142899
2925.666016	228.186905
2924.318359	202.175171
2922.969727	231.807266
2921.621094	211.367188
2920.272461	279.914459
2918.923828	213.138519
2917.575195	179.742798
2916.225586	235.287659
2914.875977	238.946579
2913.525391	196.305573
2912.175781	222.189560
2910.825195	257.319580
2909.474609	209.147247
2908.123047	273.874146
2906.772461	183.164017
2905.420898	225.673416
2904.069336	253.370926
2902.716797	268.114197
2901.364258	188.567825
2900.011719	219.953049
2898.659180	221.758286
2897.305664	218.019928
2895.953125	219.824829
2894.599609	234.557358
2893.245117	206.813522
2891.891602	212.311890
2890.537109	210.424789
2889.181641	177.165359
2887.827148	221.413651
2886.471680	232.439117
2885.116211	256.371063
2883.760742	230.504684
2882.405273	234.147202
2881.048828	276.498016
2879.692383	246.956848
2878.334961	245.066208
2876.978516	257.914246
2875.621094	211.816895
2874.263672	222.824844
2872.905273	239.352005
2871.547852	213.534073
2870.189453	237.418396
2868.830078	222.651443
2867.471680	200.531265
2866.112305	211.528488
2864.752930	231.716537
2863.393555	242.703384
2862.033203	196.698532
2860.672852	218.715591
2859.312500	202.134705
2857.952148	251.700546
2856.590820	229.609055
2855.229492	187.324493
2853.868164	279.095856
2852.505859	247.832901
2851.144531	161.518860
2849.782227	212.869751
2848.418945	242.183884
2847.056641	240.302322
2845.693359	253.093582
2844.330078	238.375031
2842.965820	214.495712
2841.602539	254.778564
2840.238281	196.086273
2838.874023	216.202515
2837.508789	207.001038
2836.143555	179.488022
2834.778320	236.218765
2833.413086	190.402802
2832.046875	274.565887
2830.681641	221.439941
2829.314453	201.269775
2827.948242	239.647247
2826.581055	237.771484
2825.214844	226.753174
2823.846680	223.052338
2822.479492	243.116180
2821.111328	263.172180
2819.743164	239.366852
2818.375000	263.069458
2817.005859	250.232513
2815.636719	277.576050
2814.267578	262.915466
2812.898438	275.642242
2811.528320	228.136124
2810.158203	220.792648
2808.788086	240.817688
2807.416992	246.242722
2806.046875	231.605316
2804.675781	226.090164
2803.303711	233.337814
2801.932617	249.695602
2800.560547	236.891144
2799.188477	238.666748
2797.815430	222.226379
2796.443359	189.401871
2795.070313	271.301575
2793.696289	202.071075
2792.323242	238.433685
2790.949219	252.945068
2789.575195	220.146561
2788.201172	232.836792
2786.826172	263.708862
2785.451172	252.747360
2784.076172	261.787811
2782.701172	205.390533
2781.325195	192.629562
2779.949219	216.211655
2778.573242	287.014801
2777.196289	256.083374
2775.819336	228.795685
2774.442383	221.488998
2773.065430	221.445679
2771.687500	228.661453
2770.309570	257.647400
2768.931641	195.918839
2767.553711	204.949051
2766.174805	192.215469
2764.795898	264.697784
2763.416992	244.706909
2762.037109	212.037811
2760.657227	230.115646
2759.277344	235.505341
2757.897461	233.648010
2756.516602	264.387054
2755.135742	262.524780
2753.754883	206.358368
2752.373047	247.943512
2750.991211	217.134277
2749.609375	180.909790
2748.227539	293.016449
2746.844727	227.857040
2745.461914	215.156158
2744.079102	247.652267
2742.696289	236.759781
2741.312500	238.520355
2739.928711	216.794205
2738.544922	223.976776
2737.160156	223.932877
2735.775391	211.250092
2734.390625	274.390778
2733.005859	245.459412
2731.620117	247.215775
2730.234375	212.888641
2728.848633	214.650681
2727.461914	241.660095
2726.076172	228.991150
2724.689453	248.776230
2723.301758	216.284729
2721.915039	254.084717
2720.527344	230.613220
2719.138672	243.177170
2717.750977	246.731369
2716.362305	171.057526
2714.973633	223.231293
2713.584961	179.989899
2712.195313	206.947769
2710.806641	264.481323
2709.416016	226.653778
2708.026367	217.616867
2706.635742	201.390945
2705.245117	251.689270
2703.854492	235.462997
2702.462891	251.590439
2701.072266	238.963989
2699.680664	222.749741
2698.288086	228.094055
2696.896484	269.349518
2695.503906	231.595093
2694.110352	236.934464
2692.717773	199.201218
2691.324219	251.195419
2689.930664	265.497253
2688.537109	267.238647
2687.142578	227.735840
2685.748047	222.312546
2684.353516	229.438828
2682.958984	197.135239
2681.563477	191.721130
2680.167969	231.095001
2678.771484	238.213898
2677.375977	231.004150
2675.979492	225.587601
2674.583008	297.144257
2673.185547	225.498886
2671.789063	252.294373
2670.391602	228.988144
2668.993164	239.674820
2667.595703	221.745010
2666.197266	227.065140
2664.798828	221.657776
2663.400391	239.486282
2662.000977	244.799744
2660.601563	207.234909
2659.202148	262.564972
2657.801758	219.653976
2656.401367	278.530701
2655.000977	191.005905
2653.600586	207.031052
2652.199219	237.325089
2650.797852	214.085739
2649.396484	208.692505
2647.995117	233.618256
2646.592773	249.619202
2645.190430	269.179108
2643.787109	242.391724
2642.384766	260.163391
2640.981445	190.630142
2639.578125	260.060913
2638.173828	235.077240
2636.769531	306.252411
2635.365234	197.600708
2633.960938	195.781937
2632.555664	240.230484
2631.150391	249.078812
2629.745117	215.232834
2628.339844	241.866913
2626.933594	234.706894
2625.527344	239.993835
2624.121094	220.395325
2622.713867	220.351868
2621.306641	177.668076
2619.899414	209.606995
2618.492188	202.461746
2617.083984	241.485672
2615.675781	221.909973
2614.266602	280.438873
2612.858398	234.244492
2611.449219	260.811707
2610.040039	234.152069
2608.629883	211.050003
2607.220703	216.327896
2605.810547	235.786331
2604.399414	226.877396
2602.989258	212.655579
2601.578125	265.767029
2600.166992	224.971664
2598.754883	262.119934
2597.343750	263.838928
2595.930664	198.282730
2594.518555	237.184280
2593.106445	261.912994
2591.693359	221.166611
2590.280273	277.730408
2588.866211	252.914673
2587.452148	213.962463
2586.038086	270.494141
2584.624023	206.807587
2583.208984	203.232254
2581.794922	217.327209
2580.378906	166.054642
2578.963867	249.032745
2577.547852	277.236969
2576.131836	275.416687
2574.715820	293.013702
2573.298828	225.893600
2571.881836	206.440063
2570.464844	257.558044
2569.047852	227.523407
2567.629883	213.371231
2566.211914	252.116135
2564.793945	289.083008
2563.375000	176.235275
2561.956055	220.250519
2560.537109	271.294952
2559.118164	228.969925
2557.698242	241.251343
2556.278320	237.682404
2554.857422	227.073792
2553.437500	219.989212
2552.016602	272.732635
2550.595703	239.253540
2549.173828	216.340897
2547.752930	239.158844
2546.330078	228.562469
2544.908203	268.947205
2543.485352	316.345825
2542.063477	207.341202
2540.639648	221.354401
2539.216797	242.387772
2537.792969	238.827606
2536.369141	196.642593
2534.945313	243.999176
2533.520508	245.705887
2532.095703	243.902527
2530.670898	207.012924
2529.245117	271.869873
2527.819336	201.669952
2526.393555	234.942764
2524.967773	203.342987
2523.541016	268.149231
2522.114258	229.546326
2520.687500	269.794861
2519.260742	246.971024
2517.833008	250.424500
2516.405273	215.357391
2514.976563	206.562073
2513.547852	227.523254
2512.119141	216.979156
2510.690430	171.449509
2509.261719	232.635345
2507.832031	208.106125
2506.402344	202.819519
2504.971680	239.489319
2503.541016	248.180573
2502.110352	234.152100
2500.679688	227.117416
2499.248047	221.832214
2497.816406	227.027283
2496.384766	242.696396
2494.953125	223.445847
2493.520508	233.873444
2492.087891	258.256714
2490.655273	193.654083
2489.221680	254.665604
2487.788086	270.310486
2486.354492	230.154190
2484.919922	209.189545
2483.485352	245.748901
2482.050781	282.293732
2480.616211	275.268829
2479.180664	257.795532
2477.745117	231.621582
2476.309570	245.504929
2474.873047	241.974503
2473.437500	226.262115
2472.000000	229.697433
2470.563477	257.488373
2469.125977	229.606140
2467.688477	217.386841
2466.250977	236.469879
2464.812500	236.422867
2463.374023	245.066162
2461.935547	206.787766
2460.497070	250.180817
2459.057617	229.286819
2457.618164	244.871307
2456.177734	244.822617
2454.738281	282.965607
2453.297852	267.288544
2451.857422	255.088333
2450.416016	274.122040
2448.974609	241.110016
2447.533203	230.656479
2446.091797	239.280167
2444.649414	237.498978
2443.207031	251.317505
2441.764648	178.486557
2440.321289	246.019882
2438.877930	219.988068
2437.434570	252.849319
2435.990234	259.724976
2434.546875	259.673279
2433.101563	250.967529
2431.657227	273.413605
2430.211914	287.200134
2428.766602	283.683380
2427.321289	212.720154
2425.875977	231.697754
2424.429688	248.939041
2422.983398	224.691864
2421.536133	259.208191
2420.089844	252.245697
2418.642578	229.739685
2417.194336	260.780304
2415.747070	212.381348
2414.298828	267.581696
2412.849609	239.912537
2411.401367	241.590347
2409.952148	198.409653
2408.502930	189.745316
2407.052734	250.068954
2405.603516	243.122025
2404.152344	237.901764
2402.703125	243.025070
2401.251953	261.932220
2399.800781	246.373932
2398.349609	248.047333
2396.898438	239.386810
2395.445313	239.339066
2393.994141	227.240662
2392.541016	228.916504
2391.087891	318.354156
2389.634766	221.943192
2388.181641	223.619049
2386.728516	216.695206
2385.275391	233.846558
2383.820313	249.271927
2382.365234	178.752441
2380.910156	235.424957
2379.455078	187.271515
2378.000000	233.613220
2376.544922	231.849167
2375.089844	200.895813
2373.632813	240.340149
2372.175781	219.695663
2370.718750	245.392227
2369.261719	241.911835
2367.804688	255.586258
2366.347656	217.805161
2364.888672	260.628113
2363.429688	262.290344
2361.972656	222.816544
2360.513672	173.076721
2359.054688	243.286942
2357.593750	236.386536
2356.134766	227.776260
2354.673828	229.442978
2353.214844	227.685196
2351.753906	243.043854
2350.292969	183.102066
2348.832031	249.790222
2347.369141	227.503128
2345.908203	215.486176
2344.445313	234.251587
2342.984375	213.690445
2341.521484	213.647705
2340.058594	155.504410
2338.593750	215.270706
2337.130859	259.639679
2335.667969	208.353317
2334.203125	230.508759
2332.738281	228.755493
2331.273438	256.018311
2329.808594	261.086426
2328.343750	243.973099
2326.878906	315.566345
2325.412109	245.580841
2323.945313	230.185928
2322.478516	196.045044
2321.011719	221.571762
2319.544922	207.894928
2318.078125	250.446167
2316.611328	224.845398
2315.142578	235.018555
2313.673828	229.863388
2312.205078	188.960922
2310.736328	231.473297
2309.267578	229.725250
2307.798828	221.172577
2306.328125	199.015427
2304.859375	215.981979
2303.388672	178.531982
2301.917969	266.894318
2300.447266	256.643066
2298.974609	249.794495
2297.503906	212.367691
2296.031250	242.899918
2294.560547	234.359909
2293.087891	263.177551
2291.615234	235.963486
2290.142578	169.723862
2288.667969	234.171936
2287.195313	254.483658
2285.720703	237.470428
2284.246094	274.732056
2282.773438	205.159943
2281.296875	242.413086
2279.822266	230.500443
2278.347656	252.482895
2276.871094	225.325394
2275.396484	182.934265
2273.919922	223.541443
2272.443359	235.348648
2270.966797	240.379852
2269.488281	262.333771
2268.011719	184.442825
2266.533203	219.933502
2265.056641	240.186813
2263.578125	226.609634
2262.099609	189.367020
2260.619141	297.516968
2259.140625	268.725525
2257.662109	233.186630
2256.181641	212.866745
2254.701172	209.445816
2253.220703	234.734818
2251.740234	224.557236
2250.259766	263.337494
2248.777344	224.466965
2247.296875	197.423721
2245.814453	247.995331
2244.332031	220.958206
2242.849609	241.150146
2241.367188	232.671539
2239.884766	254.538666
2238.400391	262.914215
2236.917969	225.791138
2235.433594	205.529694
2233.949219	234.121964
2232.464844	252.598770
2230.978516	203.722015
2229.494141	233.980682
2228.009766	235.616577
2226.523438	215.377518
2225.037109	210.287277
2223.550781	238.838257
2222.064453	264.014496
2220.576172	248.829803
2219.089844	194.989502
2217.601563	198.311462
2216.115234	221.795273
2214.626953	201.591461
2213.138672	283.850800
2211.648438	203.189529
2210.160156	231.690140
2208.669922	216.536285
2207.181641	253.413895
2205.691406	208.059555
2204.201172	241.568863
2202.710938	197.912384
2201.218750	217.995132
2199.728516	253.158691
2198.236328	259.812531
2196.744141	234.622070
2195.251953	236.250320
2193.759766	239.553085
2192.267578	242.854507
2190.775391	217.687729
2189.281250	252.801682
2187.787109	232.664566
2186.294922	252.699738
2184.800781	215.839020
2183.304688	219.141159
2181.810547	262.581848
2180.316406	230.757858
2178.820313	222.352203
2177.324219	205.592514
2175.828125	232.289368
2174.332031	227.230072
2172.835938	253.911774
2171.337891	213.777283
2169.841797	242.120697
2168.343750	242.071838
2166.845703	223.662598
2165.347656	256.993195
2163.849609	235.251450
2162.351563	223.527161
2160.851563	235.156464
2159.353516	243.446167
2157.853516	241.729904
2156.353516	236.680786
2154.853516	219.968674
2153.353516	233.252991
2151.851563	248.197678
2150.351563	249.812943
2148.849609	234.776718
2147.347656	258.035736
2145.845703	241.339493
2144.343750	229.642197
2142.839844	211.294678
2141.337891	246.183395
2139.833984	289.373322
2138.330078	282.663910
2136.826172	229.410187
2135.322266	260.942871
2133.818359	257.566681
2132.314453	232.593826
2130.808594	245.835175
2129.302734	229.178329
2127.796875	252.377243
2126.291016	200.864929
2124.785156	234.018387
2123.279297	228.992935
2121.771484	262.127289
2120.263672	277.002502
2118.757813	225.537231
2117.250000	225.491592
2115.740234	202.238281
2114.232422	245.288589
2112.724609	278.379333
2111.214844	240.219238
2109.705078	260.046783
2108.195313	230.185883
2106.685547	210.271133
2105.175781	216.849930
2103.664063	195.290909
2102.154297	208.488739
2100.642578	246.496277
2099.130859	243.138336
2097.619141	279.469757
2096.107422	236.426498
2094.595703	223.154617
2093.082031	233.025375
2091.570313	269.329346
2090.056641	244.494888
2088.542969	262.613556
2087.029297	211.369324
2085.513672	231.138336
2084.000000	237.694092
2082.484375	244.247177
2080.968750	212.847961
2079.455078	201.257248
2077.937500	207.813705
2076.421875	197.877670
2074.906250	240.702332
2073.388672	250.543381
2071.873047	207.645157
2070.355469	205.955383
2068.837891	215.797455
2067.320313	235.517365
2065.800781	284.868774
2064.283203	222.251343
2062.763672	207.392487
2061.244141	218.869858
2059.724609	225.406647
2058.205078	200.686340
2056.685547	236.827591
2055.164063	230.202301
2053.644531	231.799530
2052.123047	243.257904
2050.601563	271.144623
2049.080078	230.015381
2047.558594	185.617569
2046.035156	221.710449
2044.513672	239.727036
2042.990234	219.978745
2041.466797	226.499252
2039.943359	210.043579
2038.419922	221.485321
2036.896484	237.843292
2035.371094	214.835449
2033.847656	275.458160
2032.322266	196.715836
2030.796875	216.343430
2029.271484	206.467667
2027.744141	239.191666
2026.218750	275.178284
2024.691406	225.993347
2023.164063	253.781479
2021.636719	220.990540
2020.109375	181.666367
2018.582031	229.082153
2017.054688	230.671524
2015.525391	193.004974
2013.996094	196.236313
2012.468750	219.085968
2010.939453	228.849213
2009.408203	230.436935
2007.878906	230.390045
2006.347656	222.174957
2004.818359	213.963196
2003.287109	225.350464
2001.755859	213.876083
2000.224609	210.567932
1998.691406	262.748322
1997.160156	207.218887
1995.626953	233.277695
1994.093750	221.813324
1992.560547	242.966568
1991.027344	249.438339
1989.494141	244.497574
1987.960938	223.262299
1986.425781	249.285919
1984.890625	182.446625
1983.355469	234.526443
1981.820313	203.540497
1980.285156	196.987045
1978.750000	219.734131
1977.212891	255.490570
1975.675781	235.914536
1974.138672	222.853119
1972.601563	190.281006
1971.064453	211.380234
1969.527344	212.962799
1967.988281	211.294037
1966.451172	217.750961
1964.912109	190.087067
1963.373047	225.783859
1961.833984	209.497681
1960.292969	185.099716
1958.753906	258.112701
1957.212891	241.829849
1955.671875	235.289749
1954.130859	257.954742
1952.589844	225.461578
1951.048828	231.902328
1949.505859	291.845459
1947.964844	230.186630
1946.421875	233.381042
1944.878906	230.092651
1943.335938	220.325424
1941.792969	221.900146
1940.248047	207.280426
1938.705078	242.857132
1937.160156	184.533722
1935.615234	249.231476
1934.070313	203.875000
1932.525391	186.038376
1930.978516	236.139587
1929.433594	258.730225
1927.886719	202.091690
1926.339844	257.008087
1924.792969	211.705536
1923.246094	192.273346
1921.699219	187.387802
1920.150391	169.583603
1918.601563	221.220978
1917.052734	193.730591
1915.503906	234.043259
1913.955078	213.016495
1912.406250	235.560974
1910.855469	216.155579
1909.306641	209.660278
1907.755859	211.229828
1906.205078	212.798721
1904.654297	204.696289
1903.101563	244.940704
1901.550781	203.001404
1899.998047	240.008087
1898.447266	236.738037
1896.894531	231.859177
1895.339844	222.152908
1893.787109	254.296906
1892.234375	265.508850
1890.679688	215.581223
1889.125000	250.923767
1887.570313	241.223450
1886.015625	228.311432
1884.460938	266.844635
1882.906250	257.146942
1881.349609	252.273773
1879.792969	224.911407
1878.236328	221.652969
1876.679688	199.125641
1875.123047	239.222900
1873.566406	253.620621
1872.007813	197.398376
1870.449219	248.703079
1868.890625	176.462784
1867.332031	198.880905
1865.773438	205.254333
1864.214844	205.212250
1862.654297	248.448257
1861.093750	267.628082
1859.533203	241.937439
1857.972656	216.257324
1856.412109	225.822433
1854.851563	216.168625
1853.289063	222.527954
1851.728516	195.272247
1850.166016	200.032974
1848.603516	244.790115
1847.039063	260.735962
1845.476563	198.310577
1843.914063	204.665680
1842.349609	222.208527
1840.785156	255.727097
1839.220703	207.735611
1837.656250	262.012665
1836.091797	222.026108
1834.525391	241.144302
1832.958984	186.808548
1831.392578	223.485687
1829.826172	170.771835
1828.259766	250.520294
1826.693359	231.324722
1825.125000	224.897141
1823.558594	175.415634
1821.990234	202.483704
1820.421875	221.570480
1818.853516	227.899780
1817.285156	197.578766
1815.714844	205.503418
1814.144531	202.275726
1812.576172	195.864578
1811.005859	238.810135
1809.433594	224.435364
1807.863281	227.572052
1806.292969	237.071777
1804.720703	262.475159
1803.148438	235.383850
1801.576172	201.943237
1800.003906	236.876801
1798.431641	238.417526
1796.857422	211.353378
1795.285156	231.964249
1793.710938	214.443359
1792.136719	215.987381
1790.562500	208.003845
1788.986328	163.511353
1787.412109	225.377029
1785.835938	225.330627
1784.259766	247.495377
1782.683594	242.685867
1781.107422	222.019791
1779.531250	196.605606
1777.955078	210.831940
1776.376953	196.524643
1774.798828	204.406906
1773.220703	205.949036
1771.642578	236.000656
1770.064453	240.702744
1768.484375	188.406097
1766.906250	223.191483
1765.326172	207.319565
1763.746094	205.694580
1762.166016	226.217407
1760.583984	210.354645
1759.003906	191.335831
1757.421875	222.915634
1755.841797	181.773132
1754.259766	235.466202
1752.675781	232.257690
1751.093750	206.935257
1749.511719	217.947922
1747.927734	186.322830
1746.343750	241.538239
1744.759766	186.245972
1743.175781	208.299973
1741.591797	209.834702
1740.005859	198.749756
1738.421875	193.977585
1736.835938	223.895401
1735.250000	192.321136
1733.664063	200.161835
1732.076172	237.938568
1730.490234	242.615738
1728.902344	233.115051
1727.316406	215.744370
1725.728516	171.615189
1724.138672	198.339905
1722.550781	240.791580
1720.962891	229.727524
1719.373047	232.826370
1717.783203	190.311981
1716.193359	226.440201
1714.603516	187.089005
1713.013672	278.217743
1711.421875	199.583923
1709.830078	208.969894
1708.240234	245.056885
1706.648438	234.012375
1705.054688	175.865555
1703.462891	218.216614
1701.871094	204.045288
1700.277344	276.188812
1698.683594	174.151245
1697.089844	210.193176
1695.496094	208.581436
1693.902344	222.649902
1692.306641	216.333328
1690.710938	161.432785
1689.117188	188.038132
1687.521484	191.132553
1685.923828	186.393997
1684.328125	198.883530
1682.730469	225.459076
1681.134766	233.239243
1679.537109	222.235687
1677.939453	219.060257
1676.341797	217.450516
1674.742188	211.149231
1673.144531	242.380417
1671.544922	217.315506
1669.945313	209.455017
1668.345703	189.095596
1666.746094	195.306229
1665.144531	201.514282
1663.544922	207.719757
1661.943359	204.553772
1660.341797	220.122955
1658.740234	209.151535
1657.138672	262.165497
1655.535156	219.986176
1653.933594	246.458237
1652.330078	227.692703
1650.726563	201.138840
1649.123047	226.039429
1647.519531	241.578278
1645.914063	196.339050
1644.310547	225.898880
1642.705078	200.930435
1641.099609	211.789719
1639.494141	194.619293
1637.888672	230.381470
1636.281250	182.088104
1634.675781	227.173935
1633.068359	200.680542
1631.460938	225.524353
1629.853516	191.267166
1628.244141	216.102600
1626.636719	217.612137
1625.027344	225.337219
1623.417969	215.968094
1621.808594	215.923264
1620.199219	214.325363
1618.589844	186.331192
1616.978516	200.264450
1615.369141	200.222870
1613.757813	276.219147
1612.146484	231.169128
1610.535156	206.302750
1608.921875	193.853287
1607.310547	265.136230
1605.697266	217.025497
1604.083984	210.780975
1602.470703	184.395035
1600.857422	206.045746
1599.242188	192.062881
1597.628906	182.731537
1596.013672	185.790054
1594.398438	222.901733
1592.783203	184.165222
1591.167969	196.505219
1589.550781	215.027924
1587.935547	208.796661
1586.318359	185.558441
1584.701172	194.795837
1583.083984	182.389908
1581.466797	247.256927
1579.847656	196.219360
1578.230469	182.276123
1576.611328	211.581650
1574.992188	257.859741
1573.373047	186.793625
1571.751953	202.189041
1570.132813	208.319382
1568.511719	175.877533
1566.890625	191.265579
1565.269531	220.526489
1563.648438	166.516800
1562.027344	235.849686
1560.404297	174.153366
1558.783203	238.833206
1557.160156	207.972702
1555.537109	220.251129
1553.912109	234.064331
1552.289063	243.253036
1550.664063	183.171402
1549.041016	178.516434
1547.416016	252.332718
1545.791016	196.901581
1544.164063	221.468124
1542.539063	216.809006
1540.912109	224.450485
1539.287109	184.441406
1537.660156	202.843246
1536.033203	176.682663
1534.404297	225.799438
1532.777344	241.109665
1531.148438	194.997086
1529.519531	167.324814
1527.890625	208.728699
1526.261719	196.409561
1524.632813	223.982941
1523.001953	196.327637
1521.373047	174.817825
1519.742188	185.513535
1518.111328	214.598984
1516.478516	205.359024
1514.847656	157.817657
1513.214844	186.890625
1511.583984	165.409637
1509.951172	237.343903
1508.318359	203.613876
1506.683594	176.020355
1505.050781	205.059143
1503.416016	205.016327
1501.783203	200.384567
1500.148438	211.048050
1498.511719	249.229324
1496.876953	162.041656
1495.242188	241.483337
1493.605469	161.973969
1491.968750	216.938660
1490.332031	209.256241
1488.695313	233.646103
1487.058594	192.374222
1485.419922	216.757385
1483.781250	209.081375
1482.142578	151.056412
1480.503906	204.417465
1478.865234	202.849533
1477.226563	204.332001
1475.585938	208.862915
1473.945313	249.973389
1472.304688	204.203842
1470.664063	201.113937
1469.023438	173.652985
1467.380859	181.231430
1465.740234	165.967163
1464.097656	239.003616
1462.455078	202.425659
1460.812500	165.863007
1459.167969	205.383667
1457.525391	212.945908
1455.880859	177.924683
1454.236328	220.458786
1452.591797	180.890381
1450.947266	205.168808
1449.302734	186.892441
1447.656250	230.908157
1446.009766	176.182480
1444.363281	211.070999
1442.716797	200.399536
1441.070313	233.750488
1439.421875	251.912033
1437.775391	166.894699
1436.126953	204.782394
1434.478516	209.289246
1432.830078	247.152161
1431.179688	207.685593
1429.531250	178.844986
1427.880859	231.843628
1426.230469	192.405014
1424.580078	234.775803
1422.929688	228.669113
1421.279297	204.396408
1419.626953	219.490860
1417.974609	180.096100
1416.322266	195.189285
1414.669922	198.173889
1413.017578	179.982803
1411.363281	226.821487
1409.710938	255.498596
1408.056641	202.542175
1406.402344	187.387772
1404.748047	187.348450
1403.091797	170.692993
1401.437500	179.718613
1399.781250	185.720581
1398.125000	237.008224
1396.468750	235.449173
1394.812500	235.399734
1393.154297	212.720474
1391.498047	177.984009
1389.839844	256.363800
1388.181641	189.970901
1386.523438	200.482727
1384.865234	229.074997
1383.205078	256.148468
1381.544922	241.030258
1379.884766	174.710220
1378.224609	218.341888
1376.564453	239.372864
1374.904297	194.167358
1373.242188	185.097412
1371.580078	156.472229
1369.919922	194.044952
1368.255859	212.051056
1366.593750	199.977737
1364.931641	153.334137
1363.267578	175.846283
1361.603516	175.809311
1359.939453	199.809570
1358.275391	193.759506
1356.611328	178.701782
1354.945313	238.719391
1353.279297	210.148941
1351.613281	196.597992
1349.947266	187.554031
1348.281250	198.015381
1346.615234	214.471512
1344.947266	200.931015
1343.279297	227.873764
1341.611328	223.329239
1339.943359	202.302673
1338.275391	211.249420
1336.605469	167.765625
1334.935547	203.672501
1333.267578	212.613266
1331.597656	191.611038
1329.925781	203.543839
1328.255859	196.019318
1326.583984	264.794739
1324.912109	213.885132
1323.240234	186.923126
1321.568359	174.923187
1319.896484	192.823380
1318.224609	239.110382
1316.550781	200.212738
1314.876953	209.133392
1313.203125	213.569778
1311.529297	222.483841
1309.853516	182.129562
1308.179688	153.732697
1306.503906	192.498413
1304.828125	235.723526
1303.152344	201.366867
1301.474609	174.481140
1299.798828	213.209732
1298.121094	180.370178
1296.443359	187.783859
1294.765625	189.234268
1293.087891	181.745743
1291.410156	205.537857
1289.730469	204.005386
1288.050781	229.271530
1286.371094	162.242340
1284.691406	223.222137
1283.011719	266.322174
1281.332031	223.127899
1279.650391	218.619156
1277.968750	228.981232
1276.287109	194.741592
1274.605469	191.727936
1272.921875	206.546921
1271.240234	187.190033
1269.556641	184.179840
1267.873047	175.230881
1266.189453	221.219360
1264.505859	209.297577
1262.820313	169.183548
1261.134766	182.501572
1259.451172	172.078918
1257.765625	176.491913
1256.078125	195.731155
1254.392578	180.864792
1252.705078	220.845535
1251.019531	191.161407
1249.332031	179.268509
1247.642578	173.305618
1245.955078	177.711761
1244.267578	188.038483
1242.578125	182.077484
1240.888672	190.918915
1239.199219	186.439484
1237.509766	196.755585
1235.818359	177.486267
1234.128906	181.884918
1232.437500	233.591339
1230.746094	164.070572
1229.054688	168.469238
1227.363281	200.938293
1225.669922	183.169647
1223.976563	171.315979
1222.283203	144.701813
1220.589844	209.625565
1218.896484	159.399750
1217.203125	182.975769
1215.507813	203.591187
1213.812500	194.698135
1212.117188	196.131561
1210.421875	221.154129
1208.726563	157.723190
1207.029297	176.848328
1205.332031	188.598236
1203.636719	164.988480
1201.937500	181.154282
1200.240234	225.290482
1198.542969	200.215744
1196.843750	191.342117
1195.144531	195.716202
1193.445313	204.502121
1191.746094	185.336700
1190.046875	192.650467
1188.345703	185.258087
1186.644531	195.508713
1184.943359	216.042740
1183.242188	167.507797
1181.541016	160.126968
1179.837891	183.592880
1178.136719	157.122147
1176.433594	211.409225
1174.730469	182.008194
1173.027344	230.396927
1171.322266	149.652847
1169.619141	178.958542
1167.914063	171.587738
1166.208984	181.815048
1164.503906	184.708313
1162.796875	136.303360
1161.091797	164.115417
1159.384766	184.590622
1157.677734	205.057114
1155.970703	221.121765
1154.263672	218.146622
1152.554688	181.506271
1150.847656	177.077347
1149.138672	184.355392
1147.429688	160.910980
1145.720703	175.501923
1144.009766	195.935486
1142.300781	206.127090
1140.589844	200.236923
1138.878906	162.201263
1137.167969	181.159271
1135.455078	181.120728
1133.744141	192.764938
1132.031250	179.583664
1130.318359	172.246857
1128.605469	201.398376
1126.892578	218.864700
1125.179688	180.889648
1123.464844	161.890961
1121.750000	138.525833
1120.035156	163.279907
1118.320313	221.546982
1116.605469	199.641281
1114.888672	208.340332
1113.171875	164.597519
1111.455078	193.688568
1109.738281	208.207260
1108.021484	181.960587
1106.302734	180.466461
1104.585938	157.146988
1102.867188	167.296783
1101.148438	210.894485
1099.429688	142.505219
1097.708984	207.896973
1095.990234	197.678055
1094.269531	162.759003
1092.548828	155.459824
1090.828125	149.616348
1089.105469	177.177704
1087.384766	153.908463
1085.662109	169.843872
1083.939453	175.613037
1082.216797	219.106735
1080.492188	182.791794
1078.769531	165.347778
1077.044922	168.212723
1075.320313	204.421844
1073.595703	173.938919
1071.871094	179.698532
1070.146484	181.109070
1068.419922	192.658920
1066.693359	162.204468
1064.966797	199.816422
1063.240234	149.106506
1061.513672	170.784576
1059.785156	177.983215
1058.056641	199.645844
1056.328125	211.174408
1054.599609	215.467590
1052.871094	172.048096
1051.140625	202.366302
1049.412109	203.768234
1047.681641	190.721008
1045.951172	190.680252
1044.218750	193.528000
1042.488281	229.584900
1040.755859	164.572861
1039.023438	202.063828
1037.291016	164.502518
1035.558594	171.680847
1033.826172	168.759369
1032.091797	183.144089
1030.357422	136.968246
1028.623047	204.687714
1026.888672	180.144318
1025.154297	175.783249
1023.417969	188.710495
1021.681641	214.594269
1019.945313	174.230560
1018.208984	172.753662
1016.472656	184.231155
1014.734375	200.020706
1012.998047	125.166031
1011.259766	197.058350
1009.521484	238.720322
1007.783203	195.536240
1006.042969	166.745209
1004.302734	205.512589
1002.564453	183.915939
1000.824219	224.099548
999.082031	199.635681
997.341797	203.900696
995.599609	167.966705
993.859375	205.248657
992.117188	210.944687
990.373047	213.768875
988.630859	196.510483
986.886719	162.050552
985.144531	205.028885
983.400391	190.650330
981.656250	183.443710
979.910156	212.061325
978.166016	216.313477
976.419922	209.105942
974.673828	210.493042
972.927734	183.247162
971.181641	144.562454
969.433594	204.633636
967.687500	187.421387
965.939453	187.381180
964.191406	180.190567
962.441406	200.168793
960.693359	202.984787
958.943359	172.928802
957.195313	192.895691
955.445313	187.140091
953.693359	225.662506
951.943359	177.064209
950.191406	178.453827
948.441406	185.552139
946.689453	206.917572
944.935547	176.912201
943.183594	175.447815
941.431641	193.949417
939.677734	172.520874
937.923828	203.844513
936.169922	233.729507
934.414063	203.756943
932.660156	217.958847
930.904297	222.184799
929.148438	212.169373
927.392578	189.345383
925.636719	193.574722
923.878906	221.993866
922.123047	204.873367
920.365234	219.053589
918.607422	187.719849
916.849609	209.006699
915.089844	191.903656
913.330078	227.392456
911.572266	218.818161
909.812500	186.097504
908.050781	195.999466
906.291016	225.776901
904.529297	181.718399
902.767578	202.969833
901.005859	211.440552
899.244141	200.044983
897.482422	207.094193
895.718750	181.522949
893.957031	233.944061
892.193359	198.455261
890.427734	187.074677
888.664063	187.034393
886.898438	191.243988
885.134766	223.778091
883.369141	205.321747
881.603516	225.097427
879.835938	200.987106
878.070313	212.264572
876.302734	200.900513
874.535156	166.909531
872.767578	220.612503
871.000000	173.906982
869.230469	172.455933
867.460938	214.816818
865.693359	178.033447
863.921875	189.296341
862.152344	186.430832
860.382813	217.455734
858.611328	201.879639
856.839844	193.367462
855.068359	206.025986
853.296875	228.554871
851.523438	193.242371
849.751953	200.251801
847.978516	229.816910
846.205078	226.948090
844.431641	207.168762
842.656250	197.261002
840.880859	211.305466
839.107422	221.118652
837.332031	223.887100
835.554688	198.498535
833.779297	204.085632
832.001953	219.520584
830.226563	203.997513
828.447266	178.635086
826.669922	229.222290
824.892578	209.489227
823.113281	181.330704
821.333984	251.559555
819.554688	233.239471
817.775391	214.927277
815.996094	206.454132
814.214844	226.067566
812.435547	240.057144
810.654297	193.688446
808.871094	217.501602
807.089844	221.663376
805.306641	182.341827
803.525391	222.969864
801.742188	180.860962
799.958984	217.266556
798.173828	222.825241
796.390625	222.777039
794.605469	281.562897
792.820313	228.282700
791.035156	226.833115
789.248047	198.785995
787.462891	267.323303
785.675781	222.488007
783.888672	230.833801
782.101563	236.378601
780.314453	211.156464
778.525391	191.537567
776.736328	229.236206
774.947266	223.596664
773.158203	169.058365
771.369141	222.102951
769.578125	210.882278
767.789063	184.307495
765.998047	205.207062
764.207031	202.371292
762.414063	177.210938
760.623047	220.419373
758.830078	177.134140
757.037109	214.746033
755.244141	186.816437
753.451172	228.591461
751.656250	183.948364
749.863281	189.481476
748.068359	215.906326
746.271484	183.828751
744.476563	176.827179
742.681641	201.845520
740.884766	193.451324
739.087891	198.975098
737.291016	218.407791
735.494141	216.969589
733.695313	205.798279
731.896484	162.656586
730.097656	208.488831
728.298828	222.339813
726.500000	176.443924
724.701172	176.405624
722.900391	212.474030
721.099609	187.436386
719.298828	166.573944
717.496094	192.906265
715.695313	166.501617
713.892578	194.209702
712.089844	170.590042
710.287109	202.445007
708.484375	159.425461
706.679688	166.320862
704.876953	185.684616
703.072266	167.634003
701.267578	177.293304
699.460938	189.718002
697.656250	206.290787
695.849609	141.188507
694.042969	167.451920
692.236328	186.785904
690.429688	185.361984
688.621094	246.173584
686.812500	179.750595
685.005859	183.858688
683.195313	181.054504
681.386719	187.924103
679.578125	209.987137
677.767578	209.941452
675.957031	196.086838
674.146484	197.424759
672.333984	154.592743
670.523438	180.778946
668.710938	171.081757
666.898438	187.597198
665.085938	153.079086
663.273438	172.348831
661.458984	154.390930
659.644531	183.299316
657.830078	162.591049
656.015625	180.464310
654.201172	188.688736
652.384766	169.369781
650.570313	199.620056
648.753906	191.318222
646.935547	185.772186
645.119141	167.846420
643.300781	189.817703
641.484375	165.022888
639.666016	171.861374
637.847656	163.576370
636.027344	196.523712
634.208984	147.017151
632.388672	178.580017
630.568359	163.433762
628.748047	177.129044
626.925781	183.954391
625.105469	193.521729
623.283203	160.546829
621.460938	152.280426
619.636719	160.476776
617.814453	183.753815
615.990234	152.180771
614.167969	193.268524
612.343750	186.374344
610.517578	146.600754
608.693359	154.787552
606.867188	165.709778
605.041016	183.473236
603.214844	167.006332
601.388672	171.075668
599.562500	173.774933
597.734375	184.681030
595.906250	150.447968
594.078125	129.903961
592.250000	209.168030
590.419922	173.585205
588.591797	157.149109
586.761719	150.283691
584.931641	176.203262
583.099609	163.874191
581.269531	365.905670
579.437500	1898.744507
577.605469	1464.347534
575.773438	298.808960
573.941406	203.254791
572.107422	159.567841
570.273438	184.076477
568.439453	159.498062
566.605469	186.721832
564.771484	168.966721
562.935547	175.741440
561.101563	171.616882
559.265625	138.897552
557.427734	175.626099
555.591797	178.309952
553.753906	176.910080
551.917969	186.395187
550.080078	126.503342
548.240234	172.714050
546.402344	157.720032
544.562500	161.763565
542.724609	169.882492
540.884766	173.921585
539.042969	116.827965
537.203125	167.054550
535.361328	139.860565
533.519531	147.975357
531.677734	191.375717
529.835938	147.910507
527.994141	149.234772
526.150391	189.893539
524.306641	160.018051
522.462891	208.791336
520.619141	170.791824
518.773438	170.754379
516.927734	168.007141
515.082031	167.970291
513.236328	167.933456
511.390625	144.878540
509.542969	175.982040
507.697266	151.582031
505.849609	193.495316
504.000000	137.987350
502.152344	165.007492
500.302734	154.153488
498.455078	164.935074
496.605469	189.228210
494.753906	177.024673
492.904297	164.826477
491.052734	176.946945
489.203125	164.754105
487.351563	164.717926
485.498047	176.830414
483.646484	195.685333
481.792969	156.513870
479.939453	159.177414
478.085938	191.510406
476.232422	168.546066
474.376953	160.420593
472.523438	183.297531
470.667969	173.824890
468.812500	216.896561
466.955078	237.052200
465.099609	164.284149
463.242188	162.901733
461.384766	208.629898
459.527344	213.966843
457.667969	184.320831
455.810547	173.519394
453.951172	185.584564
452.091797	186.888275
450.232422	162.651123
448.371094	172.022842
446.511719	194.826736
444.650391	170.603806
442.789063	209.514465
440.927734	167.843231
439.064453	178.545883
437.201172	204.007523
435.337891	191.885880
433.474609	228.065857
431.611328	202.531540
429.748047	222.601532
427.882813	215.849121
426.017578	195.695847
424.152344	192.972565
422.285156	184.891312
420.419922	179.492584
418.552734	172.757034
416.685547	151.296463
414.818359	202.130356
412.949219	184.687698
411.082031	200.703247
409.212891	160.527206
407.343750	212.651657
405.472656	220.627609
403.603516	196.515793
401.732422	229.886154
399.861328	207.119156
397.990234	187.034119
396.119141	193.671173
394.246094	177.604034
392.375000	192.250656
390.501953	197.547363
388.628906	200.172745
386.753906	196.126007
384.880859	220.092850
383.005859	209.375458
381.130859	225.328934
379.253906	193.286880
377.378906	235.891205
375.501953	225.179733
373.626953	243.779831
371.748047	222.416626
369.871094	239.677551
367.994141	250.274597
366.115234	300.795563
364.236328	258.148010
362.357422	259.421326
360.478516	260.694092
358.597656	311.168030
356.716797	300.463409
354.835938	317.676483
352.955078	301.659515
351.074219	309.564453
349.191406	284.258118
347.308594	292.163391
345.425781	308.031433
343.542969	313.273041
341.658203	337.092194
339.775391	281.290314
337.890625	283.881165
336.005859	287.797150
334.119141	275.799835
332.234375	288.995483
330.347656	271.701660
328.460938	274.291718
326.574219	290.128448
324.685547	271.521332
322.798828	271.461212
320.910156	297.879272
319.021484	304.431396
317.132813	320.243866
315.242188	292.389343
313.351563	280.419983
311.460938	308.129181
309.570313	317.315979
307.679688	248.509125
305.787109	313.210724
303.896484	251.041565
302.003906	274.763550
300.111328	336.774902
298.216797	287.845734
296.322266	274.580933
294.429688	270.560638
292.535156	270.500671
290.638672	286.271362
288.744141	313.905426
286.847656	304.605377
284.951172	324.312988
283.054688	291.289734
281.158203	293.860657
279.259766	295.112946
277.361328	263.435242
275.462891	256.792389
273.564453	258.052002
271.666016	275.106628
269.765625	290.837677
267.865234	310.508850
265.964844	317.017059
264.064453	238.038788
262.162109	231.411758
260.261719	261.594971
258.359375	251.022842
256.457031	260.164856
254.552734	266.675415
252.650391	256.109161
250.746094	270.496246
248.841797	237.616226
246.937500	267.751068
245.031250	267.691559
243.126953	278.127472
241.220703	266.260986
239.314453	255.711090
237.406250	284.497314
235.500000	273.948029
233.591797	266.024323
231.683594	241.071884
229.775391	241.018295
227.865234	286.800354
225.957031	261.859894
224.046875	246.093552
222.136719	249.964966
220.226563	273.461029
218.314453	224.999207
216.402344	207.947174
214.490234	247.127487
212.578125	223.541779
210.666016	248.324478
208.751953	222.135605
206.839844	293.937561
204.925781	231.179413
203.009766	203.705978
201.095703	240.215103
