#Wave		#Intensity
4001.644531	-29.848255
4000.500000	24.801813
3999.354492	57.556564
3998.209961	9.528802
3997.064453	37.912697
3995.918945	68.470177
3994.772461	-1.346166
3993.626953	20.484961
3992.480469	9.594206
3991.333984	-12.194124
3990.187500	81.579460
3989.040039	-5.606025
3987.893555	38.007896
3986.746094	-38.239586
3985.598633	-16.419189
3984.451172	24.998640
3983.302734	-27.244293
3982.154297	14.162891
3981.006836	31.608620
3979.857422	-51.075962
3978.708984	-18.388662
3977.560547	-44.459850
3976.411133	57.830410
3975.261719	36.107006
3974.112305	86.155548
3972.961914	33.997555
3971.811523	38.379406
3970.662109	94.923004
3969.511719	1.506900
3968.360352	38.484463
3967.209961	10.281861
3966.058594	27.699110
3964.907227	75.510849
3963.755859	36.463867
3962.604492	14.797022
3961.452148	-37.244659
3960.299805	1.866956
3959.147461	1.914624
3957.995117	12.807996
3956.841797	23.697908
3955.689453	41.088898
3954.536133	23.788315
3953.382813	6.494411
3952.228516	2.209651
3951.075195	-10.739975
3949.920898	56.467159
3948.766602	101.991196
3947.612305	28.398172
3946.458008	52.260349
3945.302734	60.961296
3944.147461	0.402546
3942.992188	32.912651
3941.836914	22.141397
3940.680664	100.060303
3939.525391	39.539116
3938.369141	82.829681
3937.211914	46.114738
3936.055664	11.574642
3934.898438	46.202026
3933.742188	33.281273
3932.584961	31.166716
3931.426758	59.291340
3930.269531	39.896442
3929.111328	102.554276
3927.953125	-24.776871
3926.794922	7.653080
3925.636719	27.123327
3924.477539	55.216255
3923.319336	5.642399
3922.160156	1.377548
3921.000000	-0.729718
3919.840820	40.281723
3918.680664	12.300984
3917.520508	-17.824999
3916.360352	23.165697
3915.200195	59.832180
3914.040039	14.635112
3912.878906	14.678583
3911.717773	25.487186
3910.556641	66.429703
3909.394531	57.852638
3908.233398	-2.368780
3907.071289	6.281199
3905.909180	21.380865
3904.746094	-2.239311
3903.583984	34.358692
3902.420898	25.793276
3901.257813	6.482454
3900.094727	6.520636
3898.931641	19.450741
3897.767578	49.562500
3896.603516	83.958359
3895.439453	38.879860
3894.275391	-1.888398
3893.111328	2.440363
3891.946289	4.620361
3890.781250	47.572884
3889.616211	23.994761
3888.451172	-29.608580
3887.285156	-53.165443
3886.119141	-23.103899
3884.953125	-27.358812
3883.787109	-31.613050
3882.620117	11.284649
3881.454102	-18.691133
3880.287109	28.471338
3879.120117	15.638008
3877.952148	4.950171
3876.785156	9.254043
3875.617188	-5.712386
3874.449219	13.573215
3873.281250	-5.670656
3872.112305	-33.467136
3870.944336	32.874107
3869.775391	35.023132
3868.606445	15.785374
3867.436523	28.625200
3866.267578	-1.294932
3865.097656	43.600784
3863.927734	28.645201
3862.757813	20.103577
3861.587891	-39.702995
3860.416992	52.148342
3859.246094	-20.456276
3858.075195	20.116701
3856.904297	28.655338
3855.732422	-35.371521
3854.560547	-18.293026
3853.388672	28.645088
3852.216797	39.304176
3851.044922	-26.814566
3849.872070	11.566880
3848.699219	-11.888916
3847.526367	-9.760514
3846.353516	30.723902
3845.179688	66.930939
3844.005859	45.607670
3842.832031	34.940155
3841.658203	-1.277750
3840.484375	20.000334
3839.309570	45.526596
3838.134766	-1.318059
3836.959961	-14.101048
3835.785156	15.668529
3834.609375	-33.275406
3833.434570	49.650902
3832.258789	45.368011
3831.082031	28.330210
3829.906250	68.685562
3828.729492	64.397728
3827.552734	-14.254308
3826.375977	-14.279126
3825.199219	32.420898
3824.021484	32.384903
3822.844727	55.702015
3821.666992	-12.268383
3820.489258	85.327774
3819.310547	-1.723062
3818.131836	53.401295
3816.954102	-27.250515
3815.774414	17.251734
3814.595703	61.736191
3813.416992	17.163483
3812.237305	6.519480
3811.057617	12.831736
3809.877930	53.041229
3808.697266	4.261121
3807.516602	67.752975
3806.336914	99.455544
3805.155273	52.807240
3803.974609	31.577080
3802.792969	44.216751
3801.612305	29.341623
3800.430664	-23.611355
3799.248047	-15.202971
3798.066406	24.924274
3796.883789	-57.605247
3795.701172	-17.487627
3794.518555	56.433155
3793.335938	41.565929
3792.152344	-32.458992
3790.968750	3.393964
3789.785156	20.223063
3788.601563	56.050373
3787.417969	7.408793
3786.233398	11.558104
3785.048828	26.257481
3783.864258	9.297334
3782.678711	26.098875
3781.494141	7.033127
3780.308594	-58.425087
3779.123047	17.417149
3777.937500	8.900914
3776.750977	10.925708
3775.564453	17.163374
3774.377930	-12.422462
3773.191406	19.094660
3772.004883	-2.057964
3770.817383	-6.356970
3769.629883	-29.605024
3768.442383	-17.059023
3767.254883	-59.241314
3766.066406	-29.862436
3764.878906	-74.133072
3763.690430	64.619049
3762.500977	20.344801
3761.312500	37.065655
3760.123047	-21.906034
3758.933594	-0.982050
3757.744141	-9.489200
3756.554688	-32.702732
3755.364258	7.115179
3754.173828	-1.392362
3752.983398	-16.197992
3751.792969	8.893701
3750.602539	-64.689453
3749.411133	2.376567
3748.219727	16.954947
3747.028320	12.644111
3745.835938	20.919779
3744.644531	-0.170829
3743.452148	-2.382668
3742.259766	83.458664
3741.067383	-10.999537
3739.874023	37.086006
3738.680664	36.959648
3737.487305	15.882696
3736.293945	19.947252
3735.100586	-7.403437
3733.906250	2.943030
3732.711914	-13.929600
3731.517578	46.644176
3730.323242	48.601105
3729.127930	-24.763996
3727.932617	44.142067
3726.737305	-14.556889
3725.541992	18.771530
3724.345703	8.182394
3723.150391	35.221272
3721.954102	64.338867
3720.757813	43.296547
3719.560547	34.795635
3718.364258	28.385695
3717.166992	30.330404
3715.969727	40.625183
3714.771484	48.827511
3713.574219	34.066978
3712.375977	69.393700
3711.177734	44.200863
3709.979492	39.876499
3708.780273	43.895206
3707.582031	45.826313
3706.382813	-6.450152
3705.183594	78.865707
3703.983398	26.600626
3702.784180	22.278736
3701.583984	1.291147
3700.383789	46.963234
3699.182617	38.472046
3697.982422	21.654768
3696.781250	11.087987
3695.580078	65.045998
3694.378906	79.444855
3693.177734	31.420372
3691.975586	70.780540
3690.773438	16.534433
3689.571289	74.595695
3688.369141	12.051362
3687.166016	28.517479
3685.962891	34.585423
3684.759766	24.027477
3683.556641	63.331932
3682.352539	34.077137
3681.149414	42.213116
3679.945313	44.116272
3678.740234	16.955011
3677.536133	-28.876574
3676.331055	35.290825
3675.126953	16.443344
3673.920898	43.238110
3672.715820	82.466225
3671.510742	32.514286
3670.304688	88.313942
3669.098633	5.212919
3667.891602	87.937080
3666.685547	40.090645
3665.478516	75.127853
3664.271484	91.509842
3663.064453	72.679924
3661.857422	109.760017
3660.649414	82.651924
3659.441406	72.111183
3658.233398	100.891319
3657.025391	73.798241
3655.816406	57.057468
3654.607422	73.413292
3653.398438	131.118439
3652.189453	70.958992
3650.980469	93.502487
3649.770508	120.170189
3648.560547	111.701065
3647.350586	92.905258
3646.139648	96.836159
3644.929688	61.528389
3643.718750	117.080399
3642.507813	106.552834
3641.295898	71.261345
3640.084961	110.270592
3638.873047	77.053841
3637.661133	116.046371
3636.449219	144.711914
3635.236328	86.761826
3634.023438	131.914124
3632.810547	106.967049
3631.597656	164.463028
3630.384766	160.123047
3629.170898	168.144699
3627.957031	132.909348
3626.743164	186.237183
3625.529297	186.012634
3624.314453	146.675415
3623.099609	111.468842
3621.884766	177.105942
3620.669922	158.365326
3619.454102	201.341309
3618.239258	211.395157
3617.023438	188.545105
3615.806641	217.099380
3614.590820	161.368866
3613.374023	124.154510
3612.157227	216.399475
3610.940430	277.795044
3609.723633	326.843750
3608.505859	219.804855
3607.288086	209.304077
3606.070313	315.814850
3604.852539	344.294861
3603.633789	274.267883
3602.415039	294.538055
3601.196289	306.595490
3599.977539	310.444855
3598.758789	347.100067
3597.539063	314.038513
3596.319336	311.734589
3595.099609	397.551880
3593.878906	372.694611
3592.659180	394.963135
3591.438477	406.982330
3590.217773	429.235718
3588.996094	353.205719
3587.775391	436.870972
3586.553711	520.504578
3585.332031	491.563568
3584.109375	546.513306
3582.887695	519.623596
3581.665039	558.186584
3580.442383	512.902161
3579.219727	592.338440
3577.996094	641.085632
3576.773438	612.159485
3575.549805	656.798279
3574.325195	683.035095
3573.101563	666.371582
3571.876953	719.143127
3570.652344	739.228516
3569.427734	779.719055
3568.203125	830.398804
3566.977539	813.723145
3565.752930	911.300049
3564.526367	827.304443
3563.300781	898.330750
3562.075195	930.590149
3560.848633	1042.342041
3559.622070	1099.020630
3558.395508	1143.451172
3557.167969	1279.549438
3555.940430	1328.003540
3554.712891	1435.502930
3553.485352	1522.599243
3552.257813	1593.375610
3551.029297	1739.439819
3549.800781	1808.113770
3548.572266	1923.561646
3547.343750	1910.800781
3546.114258	2018.050049
3544.884766	1993.074463
3543.655273	1972.174927
3542.425781	1914.692139
3541.195313	1863.328491
3539.965820	1789.631470
3538.734375	1679.391602
3537.503906	1607.788452
3536.273438	1558.552612
3535.041992	1501.213135
3533.810547	1427.654053
3532.579102	1396.748535
3531.346680	1341.501709
3530.115234	1268.015015
3528.882813	1170.212158
3527.650391	1210.368286
3526.416992	1232.258545
3525.184570	1065.583374
3523.951172	1162.496704
3522.717773	1062.780151
3521.483398	1084.682739
3520.250000	1098.473633
3519.015625	1051.491699
3517.781250	1160.469360
3516.545898	994.028748
3515.311523	1080.707886
3514.076172	1088.415771
3512.840820	1112.310669
3511.605469	1069.427612
3510.369141	1083.203125
3509.133789	1141.469971
3507.897461	1044.008179
3506.660156	1102.260986
3505.423828	1140.278320
3504.186523	1137.861206
3502.949219	1212.229736
3501.711914	1227.983154
3500.474609	1257.870117
3499.236328	1273.609741
3497.998047	1283.286377
3496.759766	1311.128662
3495.521484	1389.419922
3494.282227	1372.836670
3493.042969	1457.140381
3491.803711	1422.396606
3490.564453	1518.761230
3489.324219	1576.777100
3488.084961	1558.160278
3486.844727	1561.723877
3485.603516	1706.359009
3484.363281	1705.864258
3483.122070	1836.316650
3481.880859	1886.153320
3480.639648	1927.916260
3479.397461	2086.442627
3478.156250	1989.252563
3476.914063	2089.341064
3475.671875	2161.220459
3474.428711	2359.823242
3473.186523	2395.417969
3471.943359	2392.787842
3470.700195	2514.826904
3469.456055	2594.602295
3468.212891	2606.007568
3466.968750	2719.900146
3465.724609	2869.916992
3464.479492	3005.815674
3463.235352	3059.315186
3461.990234	3084.681152
3460.745117	3234.518066
3459.499023	3203.636475
3458.253906	3353.395264
3457.007813	3388.721924
3455.761719	3474.190918
3454.515625	3573.669434
3453.268555	3651.050537
3452.021484	3808.606445
3450.775391	3883.910400
3449.527344	3943.151367
3448.280273	4110.584473
3447.032227	4149.726074
3445.784180	4214.894531
3444.536133	4366.160156
3443.287109	4587.454590
3442.039063	4680.533691
3440.790039	4765.572266
3439.541016	5146.771484
3438.291016	5173.663086
3437.041992	5510.630859
3435.791992	5653.454102
3434.541992	6082.195313
3433.291016	6438.794922
3432.041016	6747.284180
3430.790039	6959.721191
3429.539063	7132.112793
3428.287109	7522.210938
3427.036133	7558.600098
3425.784180	7748.756836
3424.532227	7683.254883
3423.280273	7813.424805
3422.027344	7839.752930
3420.774414	7512.843750
3419.521484	7511.286133
3418.268555	7250.394531
3417.014648	7099.300293
3415.761719	6950.257324
3414.507813	6669.684082
3413.252930	6287.554688
3411.999023	5869.696777
3410.744141	5645.281250
3409.489258	5408.998047
3408.234375	5023.414551
3406.978516	4679.799316
3405.723633	4503.567871
3404.467773	4231.848145
3403.210938	4006.010498
3401.955078	3722.549316
3400.698242	3538.676025
3399.441406	3360.841064
3398.184570	3109.486572
3396.927734	3029.236816
3395.669922	2732.315186
3394.412109	2630.303223
3393.154297	2617.761719
3391.896484	2384.671875
3390.637695	2370.196045
3389.378906	2133.270264
3388.120117	2017.571167
3386.861328	2011.117432
3385.601563	1941.144043
3384.341797	1904.937866
3383.082031	1755.639160
3381.822266	1751.226929
3380.561523	1657.555542
3379.300781	1569.870239
3378.040039	1515.927246
3376.779297	1485.794800
3375.517578	1358.552490
3374.256836	1344.316650
3372.995117	1266.684448
3371.732422	1193.044189
3370.470703	1222.422852
3369.208008	1142.880127
3367.945313	1049.509399
3366.682617	1070.983276
3365.418945	1027.140137
3364.155273	963.527649
3362.891602	929.614868
3361.627930	824.509521
3360.363281	865.785706
3359.099609	774.574463
3357.834961	794.100891
3356.569336	716.774719
3355.304688	698.760986
3354.039063	676.803589
3352.773438	639.052734
3351.507813	626.991394
3350.241211	607.037170
3348.975586	516.020203
3347.708984	515.834656
3346.442383	574.853638
3345.174805	456.274017
3343.907227	456.102478
3342.639648	463.821228
3341.372070	481.397644
3340.104492	467.423004
3338.835938	364.750275
3337.567383	457.229736
3336.298828	431.447510
3335.029297	384.005035
3333.760742	377.945343
3332.491211	360.072784
3331.221680	322.518311
3329.951172	369.628204
3328.681641	320.278656
3327.411133	272.916565
3326.139648	282.629852
3324.869141	315.945374
3323.597656	292.214294
3322.327148	272.425873
3321.054688	307.692902
3319.783203	246.633286
3318.510742	256.345734
3317.238281	230.688080
3315.965820	285.584534
3314.693359	277.609711
3313.419922	263.747650
3312.146484	255.781769
3310.873047	306.709259
3309.599609	243.786972
3308.325195	231.907593
3307.050781	263.194519
3305.776367	180.704163
3304.501953	272.785248
3303.226563	206.012085
3301.951172	251.006226
3300.675781	245.024170
3299.400391	284.116608
3298.124023	235.028793
3296.847656	272.151093
3295.571289	242.670990
3294.294922	217.119263
3293.017578	240.522034
3291.740234	220.854263
3290.462891	236.421082
3289.185547	220.676605
3287.907227	210.807755
3286.628906	202.899414
3285.350586	222.372238
3284.072266	196.870026
3282.792969	237.840805
3281.513672	257.298401
3280.234375	223.990494
3278.955078	220.001083
3277.674805	225.780396
3276.394531	243.275909
3275.114258	292.006256
3273.833984	237.253708
3272.552734	182.522873
3271.272461	200.016602
3269.990234	131.657974
3268.708984	229.134430
3267.426758	158.847626
3266.145508	158.786316
3264.862305	154.826721
3263.580078	260.024536
3262.296875	180.044556
3261.014648	146.858749
3259.731445	185.765533
3258.447266	207.128845
3257.164063	172.011948
3255.879883	224.522842
3254.595703	175.791443
3253.310547	191.304916
3252.026367	128.979004
3250.741211	200.916046
3249.456055	216.418182
3248.169922	241.638885
3246.884766	175.465302
3245.598633	163.749786
3244.312500	243.390015
3243.025391	206.405151
3241.739258	151.949203
3240.452148	190.755585
3239.165039	202.357834
3237.876953	202.305832
3236.589844	198.371704
3235.301758	151.737198
3234.013672	206.035614
3232.724609	140.015991
3231.436523	171.018341
3230.147461	110.850754
3228.857422	161.240173
3227.568359	153.446701
3226.278320	95.257584
3224.989258	102.985703
3223.698242	184.344193
3222.408203	162.993881
3221.117188	139.715500
3219.826172	118.383324
3218.535156	174.508667
3217.244141	89.296410
3215.952148	60.246258
3214.660156	116.352676
3213.368164	98.918274
3212.076172	60.213181
3210.783203	48.599564
3209.490234	91.132668
3208.197266	114.317589
3206.903320	89.172104
3205.610352	52.441742
3204.316406	75.622780
3203.022461	54.364647
3201.727539	42.772388
3200.432617	27.323133
3199.137695	48.563202
3197.842773	52.423065
3196.547852	29.262981
3195.251953	46.633289
3193.956055	62.068390
3192.660156	-9.298975
3191.363281	44.711330
3190.067383	69.780197
3188.770508	42.791756
3187.472656	13.886900
3186.175781	69.780823
3184.877930	48.589508
3183.580078	-11.117960
3182.282227	2.381227
3180.983398	67.864525
3179.684570	-22.612743
3178.385742	17.829430
3177.086914	2.449094
3175.788086	-20.620945
3174.488281	44.806957
3173.188477	8.275768
3171.887695	29.446917
3170.587891	-14.756466
3169.287109	48.700180
3167.986328	-24.316137
3166.685547	10.297324
3165.383789	85.240845
3164.082031	2.657523
3162.780273	14.203356
3161.478516	-58.733799
3160.175781	52.640228
3158.873047	18.109566
3157.570313	16.213499
3156.267578	-12.540437
3154.963867	22.015781
3153.660156	41.217045
3152.356445	6.724092
3151.052734	-18.169970
3149.748047	4.862742
3148.443359	10.640365
3147.138672	41.323353
3145.833984	45.177082
3144.528320	22.217056
3143.222656	-33.285847
3141.916992	-23.675278
3140.610352	-14.067886
3139.304688	7.018502
3137.998047	7.050323
3136.691406	-6.308432
3135.383789	26.241461
3134.076172	12.884990
3132.768555	-2.377822
3131.460938	-17.634413
3130.153320	1.516062
3128.844727	18.748863
3127.536133	-34.710312
3126.227539	-30.846851
3124.917969	15.028760
3123.608398	53.249790
3122.298828	-17.354111
3120.989258	15.133369
3119.678711	-9.637958
3118.369141	57.177654
3117.057617	9.518572
3115.747070	1.927678
3114.436523	0.060277
3113.125000	-43.746651
3111.813477	-22.731558
3110.500977	19.238039
3109.189453	4.032965
3107.876953	11.693179
3106.564453	23.159859
3105.250977	-28.215931
3103.937500	2.292890
3102.625000	9.948647
3101.310547	11.892529
3099.997070	-33.732391
3098.682617	-3.244873
3097.368164	27.231125
3096.053711	13.958090
3094.739258	17.801802
3093.423828	8.338012
3092.108398	23.585011
3090.792969	10.323830
3089.476563	-20.030210
3088.160156	-31.378023
3086.843750	23.746313
3085.527344	-10.389675
3084.210938	-21.732206
3082.893555	52.338810
3081.576172	10.627164
3080.257813	-2.609483
3078.940430	-32.912876
3077.622070	18.345783
3076.303711	7.011878
3074.984375	18.431973
3073.666016	24.161486
3072.346680	-38.333042
3071.027344	-0.384758
3069.707031	7.239865
3068.387695	11.073662
3067.067383	39.522903
3065.747070	41.456070
3064.425781	49.067230
3063.104492	24.503000
3061.783203	-5.728108
3060.461914	1.887965
3059.140625	-5.630109
3057.818359	15.220517
3056.496094	7.702975
3055.173828	17.201200
3053.850586	28.585838
3052.527344	-14.831883
3051.204102	70.234222
3049.880859	32.491825
3048.556641	7.983533
3047.233398	17.470970
3045.909180	47.720211
3044.583984	15.673630
3043.259766	21.380056
3041.934570	-10.649078
3040.608398	-27.575369
3039.283203	34.714462
3037.957031	15.900341
3036.630859	29.142124
3035.304688	-10.397165
3033.978516	34.880821
3032.651367	-29.137978
3031.324219	-36.619251
3029.997070	44.422058
3028.668945	-44.041115
3027.341797	14.378137
3026.013672	-8.164455
3024.684570	8.822483
3023.356445	40.855370
3022.027344	69.113388
3020.698242	7.079380
3019.368164	-9.798936
3018.039063	9.051505
3016.708984	12.856519
3015.378906	18.539337
3014.047852	33.615074
3012.717773	-3.918198
3011.386719	35.573853
3010.055664	-16.969097
3008.723633	5.611651
3007.392578	48.832943
3006.060547	7.578619
3004.727539	17.005621
3003.395508	15.171875
3002.062500	15.214514
3000.729492	-42.880806
2999.396484	4.048884
2998.062500	32.213417
2996.728516	36.000610
2995.394531	2.306906
2994.060547	19.213207
2992.725586	-5.098418
2991.390625	32.403969
2990.055664	13.716270
2988.720703	2.524123
2987.384766	-4.920275
2986.048828	15.709326
2984.712891	28.846422
2983.376953	13.917645
2982.040039	23.308859
2980.703125	-29.013134
2979.366211	15.904890
2978.028320	14.073936
2976.690430	34.670120
2975.352539	-0.797892
2974.014648	-10.098144
2972.675781	-23.130627
2971.336914	32.937103
2969.998047	32.970280
2968.659180	-0.597912
2967.319336	-19.222469
2965.979492	-26.644171
2964.639648	-15.406938
2963.299805	12.613094
2961.958984	-19.055357
2960.618164	23.870293
2959.277344	35.087681
2957.935547	14.615228
2956.593750	18.375469
2955.251953	18.407644
2953.910156	-33.717556
2952.567383	46.406681
2951.225586	-16.876699
2949.881836	1.777486
2948.539063	-18.663439
2947.195313	11.148713
2945.852539	18.621801
2944.507813	31.672388
2943.164063	24.258904
2941.819336	41.021477
2940.474609	81.945915
2939.129883	-40.718674
2937.784180	-53.689270
2936.439453	41.112148
2935.093750	-12.739622
2933.747070	41.154797
2932.401367	28.176535
2931.054688	-42.352283
2929.708008	-10.760020
2928.360352	-25.577883
2927.013672	-25.546244
2925.666016	44.981735
2924.318359	-16.210266
2922.969727	-38.435345
2921.621094	41.323109
2920.272461	2.410820
2918.923828	-4.979451
2917.575195	6.162819
2916.225586	17.300297
2914.875977	8.057619
2913.525391	0.670002
2912.175781	-6.715387
2910.825195	30.330936
2909.474609	11.836471
2908.123047	8.152674
2906.772461	-34.383236
2905.420898	-41.757301
2904.069336	6.353629
2902.716797	-10.271894
2901.364258	43.359253
2900.011719	23.035156
2898.659180	-23.153435
2897.305664	-26.829197
2895.953125	17.524778
2894.599609	17.535156
2893.245117	21.238081
2891.891602	-6.446349
2890.537109	37.866875
2889.181641	-8.265892
2887.827148	8.352496
2886.471680	-0.862715
2885.116211	10.213365
2883.760742	10.220289
2882.405273	-17.428616
2881.048828	-10.044285
2879.692383	-19.250118
2878.334961	12.084295
2876.978516	-6.334804
2875.621094	59.979420
2874.263672	10.250952
2872.905273	34.187958
2871.547852	13.935493
2870.189453	47.063370
2868.830078	23.134813
2867.471680	-11.823567
2866.112305	30.484886
2864.752930	39.673824
2863.393555	28.633211
2862.033203	-17.331558
2860.672852	-2.626898
2859.312500	-24.680437
2857.952148	-19.167627
2856.590820	32.264168
2855.229492	15.724187
2853.868164	2.862228
2852.505859	-48.547192
2851.144531	34.049892
2849.782227	21.189753
2848.418945	4.664448
2847.056641	-22.861364
2845.693359	61.497520
2844.330078	-37.542622
2842.965820	37.618332
2841.602539	0.939869
2840.238281	65.067017
2838.874023	-13.745108
2837.508789	-17.420666
2836.143555	19.197647
2834.778320	-6.458271
2833.413086	-8.304590
2832.046875	11.814320
2830.681641	-4.677031
2829.314453	4.453451
2827.948242	13.579593
2826.581055	-13.878838
2825.214844	70.220589
2823.846680	-46.826317
2822.479492	13.481930
2821.111328	15.283184
2819.743164	7.946806
2818.375000	-26.790586
2817.005859	35.290058
2815.636719	-14.049953
2814.267578	49.828201
2812.898438	5.979339
2811.528320	9.599080
2810.158203	64.309143
2808.788086	64.265739
2807.416992	35.037212
2806.046875	0.348266
2804.675781	9.431437
2803.303711	3.926677
2801.932617	9.358769
2800.560547	-45.345978
2799.188477	49.364281
2797.815430	65.711014
2796.443359	54.732964
2795.070313	23.729380
2793.696289	-21.826618
2792.323242	7.258636
2790.949219	12.674958
2789.575195	-29.215904
2788.201172	-11.063001
2786.826172	28.906134
2785.451172	48.857231
2784.076172	28.804283
2782.701172	57.833961
2781.325195	-31.270472
2779.949219	34.095959
2778.573242	26.774017
2777.196289	-5.972632
2775.819336	30.294519
2774.442383	81.070496
2773.065430	-2.493767
2771.687500	44.637470
2770.309570	19.172667
2768.931641	-17.167410
2767.553711	69.838036
2766.174805	17.180325
2764.795898	-4.636689
2763.416992	2.556273
2762.037109	20.619282
2760.657227	69.477234
2759.277344	22.301432
2757.897461	9.556528
2756.516602	-66.564766
2755.135742	-24.973600
2753.754883	0.308959
2752.373047	20.151283
2750.991211	12.843175
2749.609375	18.200735
2748.227539	-18.045795
2746.844727	10.822974
2745.461914	19.791174
2744.079102	23.331930
2742.696289	-30.964043
2741.312500	-0.311954
2739.928711	-14.838193
2738.544922	50.115959
2737.160156	19.330536
2735.775391	87.861870
2734.390625	-15.128804
2733.005859	20.893356
2731.620117	15.397098
2730.234375	-6.335170
2728.848633	22.446249
2727.461914	-31.742506
2726.076172	34.895496
2724.689453	-12.065341
2723.301758	49.133698
2721.915039	0.384684
2720.527344	83.175491
2719.138672	29.033148
2717.750977	3.726511
2716.362305	23.444004
2714.973633	41.352646
2713.584961	43.054241
2712.195313	10.562863
2710.806641	35.657562
2709.416016	33.758842
2708.026367	8.479679
2706.635742	-20.386745
2705.245117	-15.084908
2703.854492	6.390810
2702.462891	90.754761
2701.072266	61.891258
2699.680664	0.703526
2698.288086	4.195470
2696.896484	70.533386
2695.503906	27.330376
2694.110352	25.427431
2692.717773	-17.751530
2691.324219	-8.881122
2689.930664	1.778789
2688.537109	-9.088950
2687.142578	35.635742
2685.748047	39.106525
2684.353516	40.782604
2682.958984	71.131355
2681.563477	-6.039951
2680.167969	38.635704
2678.771484	8.067426
2677.375977	29.441519
2675.979492	31.112089
2674.583008	-19.129608
2673.185547	34.448608
2671.789063	18.221355
2670.391602	10.944422
2668.993164	-23.159874
2667.595703	-0.027046
2666.197266	5.216626
2664.798828	58.721546
2663.400391	15.695121
2662.000977	-16.594116
2660.601563	24.375307
2659.202148	36.749237
2657.801758	43.759926
2656.401367	13.272510
2655.000977	-17.203783
2653.600586	34.429577
2652.199219	12.881329
2650.797852	-22.931684
2649.396484	51.857761
2647.995117	24.966188
2646.592773	23.046192
2645.190430	67.474846
2643.787109	31.681963
2642.384766	13.721768
2640.981445	24.273167
2639.578125	8.101017
2638.173828	54.265385
2636.769531	14.944944
2635.365234	43.286251
2633.960938	32.459133
2632.555664	-8.615845
2631.150391	5.477704
2629.745117	42.689030
2628.339844	15.861305
2626.933594	-2.066350
2625.527344	40.455109
2624.121094	52.743523
2622.713867	-0.723995
2621.306641	54.206310
2619.899414	4.310651
2618.492188	5.937241
2617.083984	11.113602
2615.675781	2.084859
2614.266602	-10.491064
2612.858398	55.018753
2611.449219	19.370773
2610.040039	45.821804
2608.629883	49.205681
2607.220703	25.989792
2605.810547	6.327845
2604.399414	55.799519
2602.989258	30.821499
2601.578125	-10.093573
2600.166992	30.492552
2598.754883	44.495575
2597.343750	37.243618
2595.930664	44.156624
2594.518555	-17.965033
2593.106445	3.112153
2591.693359	77.260147
2590.280273	27.549257
2588.866211	-13.299681
2587.452148	41.354160
2586.038086	9.356796
2584.624023	-12.023157
2583.208984	14.319908
2581.794922	49.486374
2580.378906	-0.155863
2578.963867	22.634653
2577.547852	-0.496516
2576.131836	57.593353
2574.715820	62.705235
2573.298828	11.340901
2571.881836	28.809498
2570.464844	28.629488
2569.047852	-15.644835
2567.629883	28.267490
2566.211914	59.820374
2564.793945	3.225030
2563.375000	33.006557
2561.956055	2.867439
2560.537109	53.775723
2559.118164	-13.344390
2557.698242	42.828365
2556.278320	44.399307
2554.857422	5.482818
2553.437500	24.658304
2552.016602	40.306301
2550.595703	33.077595
2549.173828	61.028408
2547.752930	-41.162994
2546.330078	-2.660957
2544.908203	-18.667274
2543.485352	5.753957
2542.063477	-6.734725
2540.639648	14.159534
2539.216797	22.749935
2537.792969	22.555773
2536.369141	15.338130
2534.945313	15.144279
2533.520508	11.439680
2532.095703	34.056335
2530.670898	33.856926
2529.245117	-18.963085
2527.819336	72.036644
2526.393555	47.281666
2524.967773	47.077240
2523.541016	39.861816
2522.114258	39.657654
2520.687500	53.468357
2519.260742	2.464948
2517.833008	67.061646
2516.405273	17.825407
2514.976563	42.130108
2513.547852	31.421040
2512.119141	15.466120
2510.690430	64.247932
2509.261719	6.312430
2507.832031	-32.364033
2506.402344	-16.823954
2504.971680	14.442211
2503.541016	22.974697
2502.110352	-24.413683
2500.679688	-7.142667
2499.248047	59.028770
2497.816406	1.181575
2496.384766	2.721453
2494.953125	46.156250
2493.520508	-27.363476
2492.087891	19.548927
2490.655273	-6.832319
2489.221680	-52.390797
2487.788086	10.192529
2486.354492	27.417095
2484.919922	69.039711
2483.485352	-0.900288
2482.050781	40.710464
2480.616211	16.100313
2479.180664	48.980824
2477.745117	-22.643103
2476.309570	24.160486
2474.873047	-2.169669
2473.437500	2.838940
2472.000000	40.907372
2470.563477	91.138885
2469.125977	-3.023665
2467.688477	-1.499030
2466.250977	36.538357
2464.812500	-28.005733
2463.374023	-14.311963
2461.935547	23.703949
2460.497070	37.381226
2459.057617	12.838078
2457.618164	-39.482536
2456.177734	-17.120609
2454.738281	26.064005
2453.297852	32.782516
2451.857422	42.968548
2450.416016	-26.657612
2448.974609	9.554450
2447.533203	-4.541773
2446.091797	-1.293598
2444.649414	-50.054249
2443.207031	45.061768
2441.764648	-15.819511
2440.321289	-7.375646
2438.877930	14.922073
2437.434570	21.623976
2435.990234	28.322817
2434.546875	24.631836
2433.101563	38.249889
2431.657227	38.018623
2430.211914	-21.037060
2428.766602	28.906380
2427.321289	35.593853
2425.875977	47.465668
2424.429688	10.927544
2422.983398	12.428480
2421.536133	-13.720443
2420.089844	-13.943432
2418.642578	-6.572733
2417.194336	0.797965
2415.747070	8.168664
2414.298828	15.539362
2412.849609	22.910061
2411.401367	15.775812
2409.952148	-3.433060
2408.502930	3.239894
2407.052734	15.083688
2405.603516	2.782912
2404.152344	-47.439781
2402.703125	-9.739717
2401.251953	-34.091686
2399.800781	51.831116
2398.349609	55.037025
2396.898438	4.853073
2395.445313	25.285137
2393.994141	-5.936487
2392.541016	28.258667
2391.087891	-14.997481
2389.634766	-15.224276
2388.181641	-5.130237
2386.728516	8.399263
2385.275391	58.031864
2383.820313	-28.165916
2382.365234	-24.953215
2380.910156	16.063591
2379.455078	8.957446
2378.000000	29.337940
2376.544922	32.536167
2375.089844	3.108954
2373.632813	8.027450
2372.175781	-45.412792
2370.718750	0.697966
2369.261719	-1.248977
2367.804688	24.250261
2366.347656	-6.855799
2364.888672	15.204712
2363.429688	6.398645
2361.972656	-33.255241
2360.513672	-42.048172
2359.054688	-18.285183
2357.593750	-39.068516
2356.134766	-25.591311
2354.673828	-3.558428
2353.214844	-20.908245
2351.753906	-14.289322
2350.292969	2.594326
2348.832031	10.916806
2347.369141	15.814581
2345.908203	8.739195
2344.445313	-53.049259
2342.984375	-22.498489
2341.521484	-22.725443
2340.058594	16.351057
2338.593750	38.326767
2337.130859	-4.616028
2335.667969	1.985036
2334.203125	42.732731
2332.738281	15.178954
2331.273438	8.117690
2329.808594	77.849449
2328.343750	60.541992
2326.878906	41.535744
2325.412109	7.188153
2323.945313	10.366179
2322.478516	-30.780210
2321.011719	-31.004486
2319.544922	2.852593
2318.078125	17.955311
2316.611328	16.018364
2315.142578	-1.245246
2313.673828	13.849347
2312.205078	-1.704323
2310.736328	-58.099857
2309.267578	26.765842
2307.798828	-0.689988
2306.328125	-12.825994
2304.859375	0.552918
2303.388672	39.430954
2301.917969	49.394188
2300.447266	-3.532500
2298.974609	8.134738
2297.503906	2.808249
2296.031250	14.469862
2294.560547	-9.536285
2293.087891	10.613098
2291.615234	10.383602
2290.142578	11.851647
2288.667969	-0.256115
2287.195313	30.055359
2285.720703	19.645437
2284.246094	-17.894136
2282.773438	49.705051
2281.296875	8.784329
2279.822266	-11.781254
2278.347656	32.053253
2276.871094	18.268202
2275.396484	-0.592363
2273.919922	5.957123
2272.443359	39.594677
2270.966797	13.970445
2269.488281	25.590998
2268.011719	25.362406
2266.533203	-30.695309
2265.056641	-20.763233
2263.578125	6.076090
2262.099609	51.503448
2260.619141	-23.108440
2259.140625	-28.395836
2257.662109	-31.991058
2256.181641	-40.653011
2254.701172	-8.773260
2253.220703	36.603882
2251.740234	-2.456943
2250.259766	-36.437542
2248.777344	40.985245
2247.296875	5.322825
2245.814453	21.973162
2244.332031	-8.610559
2242.849609	48.509319
2241.367188	43.223633
2239.884766	-0.830429
2238.400391	-31.383816
2236.917969	7.160995
2235.433594	22.105049
2233.949219	67.361397
2232.464844	-32.223400
2230.978516	-18.963196
2229.494141	-5.707779
2228.009766	-12.653024
2226.523438	35.931740
2225.037109	27.299156
2223.550781	-18.332661
2222.064453	20.135288
2220.576172	18.237207
2219.089844	1.211957
2217.601563	16.125278
2216.115234	0.788387
2214.626953	40.895538
2213.138672	27.240021
2211.648438	-8.240028
2210.160156	-10.126926
2208.669922	21.558683
2207.181641	34.771534
2205.691406	2.676010
2204.201172	-37.793980
2202.710938	10.645658
2201.218750	-6.332565
2199.728516	45.435154
2198.236328	-25.181042
2196.744141	-10.298855
2195.251953	17.982050
2193.759766	17.773643
2192.267578	9.191499
2190.775391	-16.131935
2189.281250	-1.264464
2187.787109	-1.467163
2186.294922	1.677906
2184.800781	4.821965
2183.304688	28.039083
2181.810547	16.125065
2180.316406	-24.210367
2178.820313	-6.015485
2177.324219	27.215904
2175.828125	-13.096059
2174.332031	18.453503
2172.835938	-18.498507
2171.337891	-10.341661
2169.841797	-3.857198
2168.343750	15.980632
2166.845703	-14.262749
2165.347656	-4.442502
2163.849609	43.748596
2162.351563	20.191923
2160.851563	-51.720444
2159.353516	48.143219
2157.853516	36.271000
2156.353516	39.404991
2154.853516	-22.452486
2153.353516	-5.978101
2151.851563	-16.162127
2150.351563	-1.360003
2148.849609	46.738121
2147.347656	41.545502
2145.845703	16.382570
2144.343750	31.168123
2142.839844	22.655727
2141.337891	49.078949
2139.833984	-29.281248
2138.330078	15.432720
2136.826172	46.830013
2135.322266	46.636101
2133.818359	96.294434
2132.314453	39.604633
2130.808594	27.786459
2129.302734	35.902203
2127.796875	17.449175
2126.291016	63.745770
2124.785156	48.615112
2123.279297	33.491127
2121.771484	3.442394
2120.263672	33.119518
2118.757813	49.518433
2117.250000	-35.228458
2115.740234	92.243797
2114.232422	50.614948
2112.724609	0.718425
2111.214844	33.676743
2109.705078	51.715172
2108.195313	61.466774
2106.685547	-4.946142
2105.175781	39.576374
2103.664063	70.841255
2102.154297	45.835312
2100.642578	42.346333
2099.130859	28.935337
2097.619141	43.642731
2096.107422	59.998085
2094.595703	18.492491
2093.082031	36.500019
2091.570313	34.673038
2090.056641	72.495087
2088.542969	42.584415
2087.029297	47.364285
2085.513672	42.236721
2084.000000	23.906761
2082.484375	55.094238
2080.968750	54.919979
2079.455078	48.147930
2077.937500	102.403610
2076.421875	13.176699
2074.906250	36.094524
2073.388672	73.838356
2071.873047	65.424225
2070.355469	68.547462
2068.837891	70.022736
2067.320313	12.206958
2065.800781	54.860168
2064.283203	76.094780
2062.763672	52.880054
2061.244141	-24.630709
2059.724609	47.613251
2058.205078	77.059258
2056.685547	20.972841
2055.164063	47.124828
2053.644531	58.471157
2052.123047	27.078903
2050.601563	33.495899
2049.080078	20.195295
2047.558594	34.825462
2046.035156	10.034980
2044.513672	46.008045
2042.990234	31.076391
2041.466797	52.259956
2039.943359	91.486168
2038.419922	30.618464
2036.896484	30.467140
2035.371094	61.475731
2033.847656	21.968233
2032.322266	115.260513
2030.796875	57.730625
2029.271484	59.215488
2027.744141	57.423653
2026.218750	83.478630
2024.691406	63.669815
2023.164063	71.703751
2021.636719	38.810837
2020.109375	30.481403
2018.582031	38.518978
2017.054688	79.273224
2015.525391	18.602003
2013.996094	96.956749
2012.468750	46.117702
2010.939453	63.954586
2009.408203	21.315460
2007.878906	30.981436
2006.347656	29.208538
2004.818359	74.802902
2003.287109	6.070999
2001.755859	9.203891
2000.224609	35.188454
1998.691406	26.891394
1997.160156	5.545234
1995.626953	11.940552
1994.093750	42.798557
1992.560547	24.725115
1991.027344	6.659611
1989.494141	48.911434
1987.960938	38.997761
1986.425781	32.347260
1984.890625	17.555063
1983.355469	23.942032
1981.820313	49.866806
1980.285156	-25.153921
1978.750000	5.654411
1977.212891	16.922745
1975.675781	-71.059792
1974.138672	18.300585
1972.601563	-9.470894
1971.064453	3.419532
1969.527344	8.176879
1967.988281	-1.695261
1966.451172	-18.062817
1964.912109	6.193679
1963.373047	-15.040793
1961.833984	5.958249
1960.292969	18.830757
1958.753906	4.101694
1957.212891	2.363250
1955.671875	0.626042
1954.130859	2.134758
1952.589844	-30.419138
1951.048828	21.368893
1949.505859	-7.931935
1947.964844	-30.736122
1946.421875	3.194039
1944.878906	-5.018779
1943.335938	24.033167
1941.792969	-24.672281
1940.248047	9.230908
1938.705078	-21.641104
1937.160156	-16.888308
1935.615234	20.230768
1934.070313	-30.039827
1932.525391	-30.139919
1930.978516	-39.943890
1929.433594	-57.828651
1927.886719	9.981199
1926.339844	-6.289159
1924.792969	-24.168447
1923.246094	27.436958
1921.699219	7.943588
1920.150391	-8.311203
1918.601563	-0.337657
1917.052734	-10.125524
1915.503906	-5.382113
1913.955078	2.587334
1912.406250	-8.807242
1910.855469	23.357025
1909.306641	10.350996
1907.755859	-15.548862
1906.205078	6.925646
1904.654297	-15.738455
1903.101563	40.568199
1901.550781	37.240791
1899.998047	-43.402946
1898.447266	-17.722685
1896.894531	-4.933589
1895.339844	6.240826
1893.787109	25.458466
1892.234375	1.221731
1890.679688	-2.090112
1889.125000	-0.574781
1887.570313	-2.275952
1886.015625	5.670906
1884.460938	-34.610069
1882.906250	5.484303
1881.349609	15.032597
1879.792969	-34.863476
1878.236328	0.388828
1876.679688	-20.577780
1875.123047	-14.241542
1873.566406	-19.143908
1872.007813	0.029060
1870.449219	-27.337061
1868.890625	22.310341
1867.332031	-5.048454
1865.773438	14.107240
1864.214844	6.000655
1862.654297	25.146868
1861.093750	15.439425
1859.533203	20.156366
1857.972656	4.046894
1856.412109	-45.688770
1854.851563	23.088678
1853.289063	-25.029015
1851.728516	6.902981
1850.166016	27.620274
1848.603516	-10.868237
1847.039063	5.045912
1845.476563	17.755306
1843.914063	-4.717194
1842.349609	46.356449
1840.785156	62.246876
1839.220703	-22.540817
1837.656250	7.736496
1836.091797	-11.514970
1834.525391	7.569236
1832.958984	7.486012
1831.392578	-0.578580
1829.826172	21.684355
1828.259766	0.855254
1826.693359	13.537142
1825.125000	-24.826490
1823.558594	-10.549430
1821.990234	-4.249844
1820.421875	-53.743793
1818.853516	-41.062687
1817.285156	-2.892561
1815.714844	-10.936411
1814.144531	14.470387
1812.576172	-11.089671
1811.005859	14.307090
1809.433594	-11.242137
1807.863281	31.650091
1806.292969	7.699210
1804.720703	4.438221
1803.148438	18.673439
1801.576172	21.772228
1800.003906	24.869898
1798.431641	43.860886
1796.857422	-16.611946
1795.285156	29.389565
1793.710938	24.541264
1792.136719	-12.067796
1790.562500	21.202215
1788.986328	24.296320
1787.412109	16.279137
1785.835938	43.175728
1784.259766	51.023239
1782.683594	44.591927
1781.107422	44.506783
1779.531250	47.592793
1777.955078	28.484772
1776.376953	17.309080
1774.798828	-25.552992
1773.220703	15.566522
1771.642578	32.910686
1770.064453	51.831303
1768.484375	-6.834818
1766.906250	12.086255
1765.326172	19.921434
1763.746094	7.183937
1762.166016	62.475140
1760.583984	0.704112
1759.003906	3.791373
1757.421875	33.753712
1755.841797	-40.618267
1754.259766	32.009212
1752.675781	-10.732080
1751.093750	47.642365
1749.511719	30.184752
1747.927734	34.840374
1746.343750	-9.445047
1744.759766	15.735396
1743.175781	-28.527903
1741.591797	-15.975614
1740.005859	-1.851217
1738.421875	46.962517
1736.835938	-20.921858
1735.250000	10.535095
1733.664063	-19.488041
1732.076172	-27.438334
1730.490234	40.235104
1728.902344	63.777637
1727.316406	-16.624893
1725.728516	54.153004
1724.138672	14.712736
1722.550781	6.764673
1720.962891	74.346642
1719.373047	56.950390
1717.783203	-7.623572
1716.193359	17.461603
1714.603516	1.659678
1713.013672	53.453770
1711.421875	17.220789
1709.830078	40.708324
1708.240234	26.484962
1706.648438	21.690624
1705.054688	7.476736
1703.462891	-24.000406
1701.871094	19.875120
1700.277344	37.054989
1698.683594	18.142172
1697.089844	80.804512
1695.496094	25.819622
1693.902344	38.279419
1692.306641	75.815994
1690.710938	22.432926
1689.117188	38.019077
1687.521484	30.098619
1685.923828	45.676277
1684.328125	26.795010
1682.730469	53.326248
1681.134766	45.408287
1679.537109	78.184410
1677.939453	65.569931
1676.341797	16.979406
1674.742188	40.355896
1673.144531	60.594967
1671.544922	26.105637
1669.945313	71.348282
1668.345703	46.247143
1666.746094	57.092449
1665.144531	105.423996
1663.544922	94.386749
1661.943359	109.898941
1660.341797	119.159767
1658.740234	161.193954
1657.138672	235.981094
1655.535156	416.829529
1653.933594	463.454559
1652.330078	602.072693
1650.726563	600.303650
1649.123047	657.772888
1647.519531	604.559448
1645.914063	562.275452
1644.310547	481.060577
1642.705078	388.975800
1641.099609	352.990814
1639.494141	393.311188
1637.888672	425.831238
1636.281250	445.886963
1634.675781	400.582642
1633.068359	314.849426
1631.460938	269.590271
1629.853516	135.713516
1628.244141	90.509521
1626.636719	62.422005
1625.027344	76.305092
1623.417969	24.925497
1621.808594	71.431358
1620.199219	41.816463
1618.589844	55.690746
1616.978516	43.167419
1615.369141	33.753162
1613.757813	50.722847
1612.146484	67.685104
1610.535156	30.349689
1608.921875	73.672310
1607.310547	58.057384
1605.697266	-8.707492
1604.083984	-2.601631
1602.470703	42.239708
1600.857422	11.150390
1599.242188	79.202789
1597.628906	-18.470758
1596.013672	-17.016109
1594.398438	23.135674
1592.783203	77.198822
1591.167969	13.645357
1589.550781	29.012980
1587.935547	47.467079
1586.318359	17.977091
1584.701172	24.056875
1583.083984	48.681831
1581.466797	-3.971741
1579.847656	-55.058853
1578.230469	37.533180
1576.611328	48.233421
1574.992188	41.943970
1573.373047	-16.830807
1571.751953	-16.931379
1570.132813	-10.859892
1568.511719	47.663231
1566.890625	27.495852
1565.269531	36.637112
1563.648438	-3.564236
1562.027344	31.784233
1560.404297	0.846718
1558.783203	20.769976
1557.160156	49.927662
1555.537109	15.923795
1553.912109	5.031976
1552.289063	-16.632771
1550.664063	43.291515
1549.041016	1.620702
1547.416016	19.972635
1545.791016	32.163250
1544.164063	16.664759
1542.539063	15.011103
1540.912109	27.193604
1539.287109	-29.794958
1537.660156	2.367790
1536.033203	2.252823
1534.404297	34.394417
1532.777344	-10.264353
1531.148438	26.471651
1529.519531	17.139164
1527.890625	32.366364
1526.261719	-15.325726
1524.632813	12.173921
1523.001953	31.992470
1521.373047	28.799992
1519.742188	13.342890
1518.111328	36.212990
1516.478516	19.227186
1514.847656	-10.009662
1513.214844	-7.065152
1511.583984	12.724934
1509.951172	0.349942
1508.318359	20.129181
1506.683594	-22.855536
1505.050781	27.525103
1503.416016	-20.034086
1501.783203	5.849445
1500.148438	7.252288
1498.511719	-26.513334
1496.876953	36.042461
1495.242188	5.340718
1493.605469	58.694328
1491.968750	-33.109863
1490.332031	-4.210193
1488.695313	29.258209
1487.058594	6.221276
1485.419922	-7.647840
1483.781250	22.746449
1482.142578	-6.379513
1480.503906	16.373323
1478.865234	14.713211
1477.226563	-6.769974
1475.585938	26.638968
1473.945313	-16.177929
1472.304688	-31.547081
1470.664063	44.505180
1469.023438	23.035772
1467.380859	-2.994107
1465.740234	-12.264478
1464.097656	18.048666
1462.455078	14.864747
1460.812500	20.811758
1459.167969	-5.192865
1457.525391	0.754937
1455.880859	31.031290
1454.236328	-2.562543
1452.591797	6.419696
1450.947266	67.069870
1449.302734	-36.406479
1447.656250	7.515834
1446.009766	-13.889727
1444.363281	-26.175772
1442.716797	2.533743
1441.070313	38.820057
1439.421875	12.871473
1437.775391	8.174525
1436.126953	-1.071673
1434.478516	-14.864164
1432.830078	36.548336
1431.179688	-18.177912
1429.531250	2.900233
1427.880859	17.907782
1426.230469	25.333658
1424.580078	-39.948750
1422.929688	-2.227343
1421.279297	30.935720
1419.626953	-29.766834
1417.974609	24.575029
1416.322266	16.856825
1414.669922	7.628726
1413.017578	-3.108314
1411.363281	5.816546
1409.710938	11.713768
1408.056641	4.004498
1406.402344	-15.791390
1404.748047	20.323025
1403.091797	2.041811
1401.437500	9.442123
1399.781250	4.759530
1398.125000	16.684254
1396.468750	5.964349
1394.812500	10.338346
1393.154297	-4.902401
1391.498047	-5.053533
1389.839844	-29.333374
1388.181641	20.274321
1386.523438	14.087491
1384.865234	-19.224272
1383.205078	43.909958
1381.544922	-2.952650
1379.884766	2.918472
1378.224609	5.775284
1376.564453	-54.599888
1374.904297	-8.082621
1373.242188	-12.750331
1371.580078	-23.434462
1369.919922	30.567429
1368.255859	-19.223406
1366.593750	-17.871298
1364.931641	-19.526484
1363.267578	11.883883
1361.603516	-0.295795
1359.939453	5.557448
1358.275391	-15.628160
1356.611328	-42.811775
1354.945313	-17.435875
1353.279297	-7.081434
1351.613281	3.268551
1349.947266	-34.399765
1348.281250	-18.048134
1346.615234	5.795526
1344.947266	-28.850960
1343.279297	-24.504515
1341.611328	18.810215
1339.943359	-15.817317
1338.275391	-20.465868
1336.605469	-19.120970
1334.935547	4.687212
1333.267578	-20.924700
1331.597656	-6.107954
1329.925781	22.172247
1328.255859	19.017673
1326.583984	-8.071863
1324.912109	2.242521
1323.240234	-12.868936
1321.568359	4.917535
1319.896484	-13.177535
1318.224609	4.601661
1316.550781	-31.415192
1314.876953	-21.108662
1313.203125	8.609059
1311.529297	-7.974235
1309.853516	-21.564781
1308.179688	8.134596
1306.503906	-3.961099
1304.828125	-26.495037
1303.152344	-46.036057
1301.474609	-4.425826
1299.798828	-43.345631
1298.121094	-28.585077
1296.443359	-6.378803
1294.765625	2.407999
1293.087891	12.681041
1291.410156	-9.816899
1289.730469	49.594761
1288.050781	-38.407242
1286.371094	-23.667982
1284.691406	-4.470198
1283.011719	-31.403049
1281.332031	2.664028
1279.650391	29.280943
1277.968750	21.688461
1276.287109	18.559231
1274.605469	21.376724
1272.921875	27.165186
1271.240234	29.980412
1269.556641	16.456173
1267.873047	-72.797287
1266.189453	-15.027976
1264.505859	14.514119
1262.820313	-1.961937
1261.134766	-3.593071
1259.451172	-9.673313
1257.765625	-37.997437
1256.078125	21.176695
1254.392578	16.578939
1252.705078	40.145088
1251.019531	-20.764788
1249.332031	-41.646389
1247.642578	8.581086
1245.955078	-12.296792
1244.267578	-9.475342
1242.578125	36.274254
1240.888672	61.285244
1239.199219	-12.852237
1237.509766	29.912178
1235.818359	-10.167880
1234.128906	-25.091667
1232.437500	-20.788980
1230.746094	-13.531241
1229.054688	23.280163
1227.363281	74.851547
1225.669922	-27.224377
1223.976563	21.383533
1222.283203	-2.379273
1220.589844	27.013248
1218.896484	43.110825
1217.203125	-14.578202
1215.507813	-23.557207
1213.812500	30.892855
1212.117188	2.738944
1210.421875	14.405576
1208.726563	9.853578
1207.029297	6.778096
1205.332031	-2.188868
1203.636719	-15.570435
1201.937500	7.874508
1200.240234	25.420532
1198.542969	-1.205145
1196.843750	14.865361
1195.144531	22.100777
1193.445313	2.851824
1191.746094	52.745594
1190.046875	-3.265024
1188.345703	23.086088
1186.644531	24.437202
1184.943359	46.364357
1183.242188	19.794168
1181.541016	28.493711
1179.837891	31.315651
1178.136719	35.605999
1176.433594	48.704353
1174.730469	-10.124247
1173.027344	-27.836821
1171.322266	-16.196997
1169.619141	20.375965
1167.914063	51.068356
1166.208984	14.301453
1164.503906	-6.323255
1162.796875	50.740303
1161.091797	6.674109
1159.384766	46.133217
1157.677734	7.948111
1155.970703	35.677799
1154.263672	13.618616
1152.554688	53.048092
1150.847656	-23.150274
1149.138672	42.609531
1147.429688	33.738613
1145.720703	39.498058
1144.009766	-2.996247
1142.300781	46.628284
1140.589844	20.230881
1138.878906	20.149084
1137.167969	40.522316
1135.455078	66.730988
1133.744141	27.214758
1132.031250	40.277962
1130.318359	25.602526
1128.605469	35.744835
1126.892578	-24.152248
1125.179688	18.092905
1123.464844	32.610691
1121.750000	3.378900
1120.035156	25.186239
1118.320313	19.292582
1116.605469	-24.485010
1114.888672	51.225689
1113.171875	-2.732881
1111.455078	54.012459
1109.738281	-15.936168
1108.021484	42.247032
1106.302734	20.361666
1104.585938	36.319088
1102.867188	42.088287
1101.148438	59.492420
1099.429688	36.175213
1097.708984	44.854008
1095.990234	54.984447
1094.269531	8.437522
1092.548828	24.386843
1090.828125	30.163202
1089.105469	73.698311
1087.384766	37.358562
1085.662109	15.552924
1083.939453	46.007092
1082.216797	5.349409
1080.492188	15.486659
1078.769531	24.171137
1077.044922	54.605690
1075.320313	12.539288
1073.595703	53.113911
1071.871094	0.925702
1070.146484	22.654362
1068.419922	15.404662
1066.693359	13.953239
1064.966797	31.327879
1063.240234	15.401638
1061.513672	48.693512
1059.785156	32.774837
1058.056641	16.865170
1056.328125	45.802902
1054.599609	5.318178
1052.871094	55.937286
1051.140625	-1.873408
1049.412109	25.607515
1047.681641	40.075417
1045.951172	18.425732
1044.218750	-4.656496
1042.488281	14.147354
1040.755859	63.261669
1039.023438	12.768766
1037.291016	33.007069
1035.558594	20.057062
1033.826172	56.156181
1032.091797	18.696394
1030.357422	14.415767
1028.623047	-14.365470
1026.888672	36.131565
1025.154297	39.061546
1023.417969	11.741618
1021.681641	16.120895
1019.945313	49.299244
1018.208984	3.287170
1016.472656	39.337734
1014.734375	14.937654
1012.998047	4.937288
1011.259766	39.533787
1009.521484	19.471258
1007.783203	0.857620
1006.042969	-6.245569
1004.302734	26.897093
1002.564453	9.738492
1000.824219	28.503431
999.082031	5.612549
997.341797	38.734848
995.599609	1.500759
993.859375	13.085464
992.117188	6.013141
990.373047	50.595573
988.630859	33.482933
986.886719	13.512375
985.144531	40.867229
983.400391	40.977558
981.656250	-13.369279
979.910156	-14.674547
978.166016	22.701851
976.419922	31.420588
974.673828	5.772123
972.927734	25.949215
971.181641	8.906335
969.433594	46.251976
967.687500	2.034368
965.939453	-3.540644
964.191406	59.533569
962.441406	55.384251
960.693359	39.803532
958.943359	42.811729
957.195313	41.534618
955.445313	-22.595057
953.693359	31.850145
951.943359	20.589451
950.191406	-2.084332
948.441406	33.774513
946.689453	41.080757
944.935547	19.852781
943.183594	44.281490
941.431641	8.806437
939.677734	-0.985933
937.923828	-42.131916
936.169922	-13.423503
934.414063	35.223991
932.660156	51.088161
930.904297	-29.901093
929.148438	-4.055963
927.392578	3.273544
925.636719	-12.170720
923.878906	-10.528633
922.123047	28.106329
920.365234	12.675761
918.607422	27.119280
916.849609	3.170467
915.089844	-2.285152
913.330078	26.373367
911.572266	42.234028
909.812500	1.267478
908.050781	42.698399
906.291016	-11.024635
904.529297	9.101794
902.767578	7.931948
901.005859	18.118040
899.244141	-19.935177
897.482422	4.442854
895.718750	-13.730809
893.957031	-13.462131
892.193359	40.676113
890.427734	15.429288
888.664063	-19.722660
886.898438	0.392077
885.134766	-4.993085
883.369141	22.195620
881.603516	9.735688
879.835938	22.761576
878.070313	-5.253490
876.302734	7.775753
874.535156	19.387716
872.767578	-4.357064
871.000000	-16.777750
869.230469	-33.430607
867.460938	2.217483
865.693359	-5.949301
863.921875	-29.648180
862.152344	-15.200895
860.382813	3.479050
858.611328	27.801138
856.839844	-12.810819
855.068359	-20.946402
853.296875	-44.594883
851.523438	-20.272039
849.751953	13.914116
847.978516	-9.718037
846.205078	-3.735394
844.431641	-30.166811
842.656250	8.230587
840.880859	-36.499420
839.107422	-12.196393
837.332031	-41.408436
835.554688	-18.516506
833.779297	12.812545
832.001953	-38.892677
830.226563	-34.298367
828.447266	-11.417080
826.669922	-8.231413
824.892578	-0.826753
823.113281	-41.214931
821.333984	11.170591
819.554688	-5.311864
817.775391	4.905520
815.996094	-14.372561
814.214844	19.718109
812.435547	10.276790
810.654297	-31.439070
808.871094	18.076281
807.089844	-22.215700
805.306641	23.072912
803.525391	-14.393557
801.742188	-18.192566
799.958984	-5.167122
798.173828	7.855387
796.390625	-35.170658
794.605469	-3.932539
792.820313	-21.723557
791.035156	-5.899941
789.248047	-23.678234
787.462891	-16.254591
785.675781	-20.026018
783.888672	1.387993
782.101563	3.213000
780.314453	28.811701
778.525391	-8.512109
776.736328	-17.862272
774.947266	-43.976372
773.158203	22.136253
771.369141	-3.971699
769.578125	9.037905
767.789063	12.269122
765.998047	-27.773865
764.207031	-2.201720
762.414063	19.175407
760.623047	5.667738
758.830078	20.063093
757.037109	-11.563346
755.244141	-6.926676
753.451172	8.860118
751.656250	-10.196702
749.863281	-33.424294
748.068359	-32.959930
746.271484	14.855862
744.476563	-15.319555
742.681641	54.746002
740.884766	6.485254
739.087891	5.555270
737.291016	10.191206
735.494141	13.435254
733.695313	-6.959586
731.896484	56.068905
730.097656	13.436541
728.298828	-4.163303
726.500000	35.207405
724.701172	-3.223444
722.900391	13.912381
721.099609	-24.495333
719.298828	45.387199
717.496094	4.215286
715.695313	22.724173
713.892578	-7.326428
712.089844	8.404435
710.287109	26.901939
708.484375	6.575027
706.679688	29.223909
704.876953	54.633900
703.072266	27.388105
701.267578	54.173237
699.460938	18.631113
697.656250	16.331779
695.849609	26.491697
694.042969	31.111391
692.236328	55.099155
690.429688	37.577221
688.621094	20.063093
686.812500	62.012074
685.005859	11.321203
683.195313	54.635418
681.386719	28.839840
679.578125	70.747993
677.767578	104.350533
675.957031	82.701912
674.146484	67.964745
672.333984	82.219765
670.523438	73.007065
668.710938	90.012009
666.898438	50.453350
665.085938	48.146118
663.273438	99.611420
661.458984	73.858017
659.644531	64.652672
657.830078	129.855881
656.015625	102.730553
654.201172	105.915764
652.384766	150.408081
650.570313	73.729942
648.753906	138.852051
646.935547	137.892029
645.119141	131.426651
643.300781	124.962540
641.484375	176.256516
639.666016	176.655441
637.847656	210.041977
636.027344	202.183319
634.208984	230.048859
632.388672	257.900146
630.568359	261.015533
628.748047	254.515121
626.925781	252.133621
625.105469	267.592133
623.283203	255.597458
621.460938	250.464417
619.636719	327.626678
617.814453	312.874634
615.990234	283.045166
614.167969	265.561005
612.343750	300.156616
610.517578	242.937256
608.693359	259.707977
606.867188	302.488525
605.041016	337.031311
603.214844	318.167664
601.388672	344.472198
599.562500	350.236511
597.734375	357.362366
595.906250	326.184967
594.078125	337.406372
592.250000	359.555237
590.419922	365.288391
588.591797	422.941437
586.761719	435.479675
584.931641	437.080139
583.099609	396.341095
581.269531	373.363434
579.437500	410.451843
577.605469	410.671234
575.773438	393.147461
573.941406	426.098450
572.107422	412.659576
570.273438	415.583099
568.439453	396.687836
566.605469	426.860352
564.771484	379.343414
562.935547	376.798492
561.101563	379.696167
559.265625	284.541229
557.427734	314.674316
555.591797	324.370209
553.753906	286.425690
551.917969	316.518036
550.080078	254.093521
548.240234	229.768158
546.402344	257.112915
544.562500	224.626877
542.724609	203.019882
540.884766	271.093353
539.042969	282.074097
537.203125	223.775436
535.361328	230.672424
533.519531	195.473618
531.677734	241.718582
529.835938	184.804764
527.994141	191.671463
526.150391	160.548126
524.306641	206.726700
522.462891	168.817429
520.619141	171.580612
518.773438	177.044174
516.927734	171.657059
515.082031	179.809052
513.236328	200.136826
511.390625	187.950073
509.542969	173.051758
507.697266	187.925217
505.849609	190.604340
504.000000	190.566681
502.152344	163.468506
500.302734	178.290909
498.455078	201.207993
496.605469	179.500717
494.753906	210.494354
492.904297	194.177322
491.052734	204.871338
489.203125	207.446976
487.351563	264.016174
485.498047	224.709839
483.646484	243.440155
481.792969	217.625107
479.939453	310.518250
478.085938	288.722229
476.232422	260.182007
474.376953	354.316650
472.523438	345.966797
470.667969	341.650574
468.812500	387.169434
466.955078	374.739288
465.099609	421.552002
463.242188	438.712555
461.384766	414.126404
459.527344	474.317139
457.667969	444.325500
455.810547	468.138275
453.951172	426.030670
452.091797	417.540741
450.232422	427.859802
448.371094	458.318848
446.511719	491.437836
444.650391	505.720795
442.789063	475.662628
440.927734	463.058716
439.064453	459.842285
437.201172	475.402496
435.337891	427.873352
433.474609	408.522797
431.611328	411.966919
429.748047	419.416901
427.882813	343.725494
426.017578	428.897461
424.152344	413.509430
422.285156	422.227844
420.419922	371.988770
418.552734	375.322937
416.685547	401.400543
414.818359	371.228302
412.949219	369.156525
411.082031	407.209900
409.212891	379.680176
407.343750	424.366638
405.472656	411.518402
403.603516	445.448334
401.732422	494.046967
399.861328	521.226196
397.990234	532.343933
396.119141	511.382690
394.246094	598.576416
392.375000	634.981201
390.501953	683.363525
388.628906	739.712585
386.753906	678.608276
384.880859	748.234497
383.005859	755.130615
381.130859	740.671448
379.253906	756.857422
377.378906	614.424072
375.501953	649.245178
373.626953	576.129456
371.748047	509.683105
369.871094	492.513947
367.994141	406.107086
366.115234	404.897797
364.236328	350.441986
362.357422	313.284241
360.478516	286.762512
358.597656	301.453400
356.716797	268.255005
354.835938	207.137009
352.955078	211.140396
351.074219	229.735016
349.191406	185.867798
347.308594	161.918228
345.425781	200.360107
343.542969	132.568512
341.658203	149.719757
339.775391	113.768669
337.890625	109.646576
336.005859	110.808563
334.119141	73.492752
332.234375	69.313599
330.347656	82.341431
328.460938	86.064621
326.574219	83.138733
324.685547	66.944054
322.798828	40.140774
320.910156	42.449867
319.021484	38.115849
317.132813	89.339165
315.242188	24.087286
313.351563	26.299456
311.460938	36.420727
309.570313	10.814858
307.679688	11.632683
305.787109	21.674398
303.896484	23.760872
302.003906	9.967649
300.111328	-13.089505
298.216797	40.419022
296.322266	2.791391
294.429688	-16.365913
292.535156	-3.874069
290.638672	11.222742
288.744141	2.548231
286.847656	-32.523411
284.951172	11.495043
283.054688	-23.615524
281.158203	-15.250859
279.259766	-9.553547
277.361328	2.700471
275.462891	1.753451
273.564453	2.096585
271.666016	-2.852573
269.765625	-42.045113
267.865234	-10.198793
265.964844	-21.802824
264.064453	15.230800
262.162109	-33.246445
260.261719	1.089224
258.359375	23.551289
256.457031	-39.431992
254.552734	17.126474
252.650391	36.859867
250.746094	72.311005
248.841797	10.571364
246.937500	51.206402
245.031250	51.113914
243.126953	64.115074
241.220703	40.353733
239.314453	97.877533
237.406250	101.591507
235.500000	89.549034
233.591797	99.758316
231.683594	56.217270
229.775391	154.134125
227.865234	93.515152
225.957031	103.599434
224.046875	113.647400
222.136719	149.836197
220.226563	168.970444
218.314453	156.668777
216.402344	89.414024
214.490234	86.230164
212.578125	98.705681
210.666016	36.649139
208.751953	17.708241
206.839844	52.311752
204.925781	43.766117
203.009766	7.769733
201.095703	8.317843
