#Wave		#Intensity
4001.644531	80.265106
4000.500000	81.750763
3999.354492	90.941109
3998.209961	78.383423
3997.064453	-25.760406
3995.918945	138.628723
3994.772461	-83.150887
3993.626953	-136.800018
3992.480469	-7.150260
3991.333984	78.911911
3990.187500	93.066345
3989.040039	61.506779
3987.893555	82.334648
3986.746094	129.367508
3985.598633	-17.450748
3984.451172	42.779564
3983.302734	-36.333870
3982.154297	-95.761818
3981.006836	-37.548473
3979.857422	-9.776257
3978.708984	94.210716
3977.560547	-41.129578
3976.411133	112.963303
3975.261719	45.196629
3974.112305	10.122602
3972.961914	103.388062
3971.811523	-129.410614
3970.662109	-12.154283
3969.511719	-79.607628
3968.360352	-1.428703
3967.209961	-34.021317
3966.058594	-3.580566
3964.907227	44.258343
3963.755859	-133.672928
3962.604492	29.287868
3961.452148	-46.505363
3960.299805	-130.917862
3959.147461	25.540781
3957.995117	-69.638008
3956.841797	36.930614
3955.689453	43.749153
3954.536133	-27.452423
3953.382813	-18.406118
3952.228516	-48.347054
3951.075195	23.579216
3949.920898	-10.646128
3948.766602	-153.131577
3947.612305	120.223816
3946.458008	-74.156738
3945.302734	-32.499863
3944.147461	80.578629
3942.992188	-9.773396
3941.836914	-91.423660
3940.680664	54.091743
3939.525391	43.853680
3938.369141	-70.159157
3937.211914	-52.245071
3936.055664	13.224622
3934.898438	-68.275673
3933.742188	-87.077713
3932.584961	60.475582
3931.426758	35.188496
3930.269531	-33.274143
3929.111328	-166.480759
3927.953125	-77.288826
3926.794922	-57.193806
3925.636719	-13.366946
3924.477539	54.175964
3923.319336	3.053425
3922.160156	74.881180
3921.000000	51.802494
3919.840820	76.160019
3918.680664	22.906458
3917.520508	-49.728138
3916.360352	-79.245476
3915.200195	-74.288361
3914.040039	81.435966
3912.878906	-34.249802
3911.717773	-76.693665
3910.556641	59.547558
3909.394531	79.502632
3908.233398	-1.700422
3907.071289	95.694832
3905.909180	-148.990570
3904.746094	-53.777660
3903.583984	-10.219935
3902.420898	216.056198
3901.257813	121.949486
3900.094727	88.040436
3898.931641	183.056030
3897.767578	41.699852
3896.603516	31.406874
3895.439453	66.201485
3894.275391	-36.453449
3893.111328	101.353691
3891.946289	-48.525589
3890.781250	29.108950
3889.616211	138.880371
3888.451172	-34.575546
3887.285156	-83.587982
3886.119141	101.140083
3884.953125	19.919744
3883.787109	24.454683
3882.620117	-1.039380
3881.454102	-77.973137
3880.287109	123.616997
3879.120117	-19.759893
3877.952148	-4.624457
3876.785156	14.765141
3875.617188	72.659485
3874.449219	94.120003
3873.281250	-2.154891
3872.112305	-109.118523
3870.944336	17.115715
3869.775391	141.138580
3868.606445	119.672302
3867.436523	224.334808
3866.267578	-10.960751
3865.097656	80.811333
3863.927734	129.784531
3862.757813	138.118713
3861.587891	-97.095505
3860.416992	-56.742260
3859.246094	28.410677
3858.075195	4.622356
3856.904297	96.080063
3855.732422	-45.148716
3854.560547	84.634186
3853.388672	73.537453
3852.216797	28.288933
3851.044922	-51.093979
3849.872070	31.567938
3848.699219	-26.528461
3847.526367	30.462366
3846.353516	42.650620
3845.179688	37.758419
3844.005859	32.837723
3842.832031	-48.785427
3841.658203	-4.772782
3840.484375	11.515188
3839.309570	-38.222919
3838.134766	161.030823
3836.959961	-50.495171
3835.785156	25.232216
3834.609375	30.705929
3833.434570	-17.019205
3832.258789	69.195145
3831.082031	44.798527
3829.906250	150.035889
3828.729492	15.064944
3827.552734	18.217386
3826.375977	59.574223
3825.199219	111.503082
3824.021484	89.055824
3822.844727	43.232124
3821.666992	-0.485870
3820.489258	87.365067
3819.310547	64.807899
3818.131836	-10.812250
3816.954102	11.138909
3815.774414	86.064636
3814.595703	23.107578
3813.416992	-25.018412
3812.237305	62.492710
3811.057617	29.144451
3809.877930	2.132639
3808.697266	-14.311945
3807.516602	-1.130036
3806.336914	-91.747612
3805.155273	-68.037460
3803.974609	110.163322
3802.792969	34.289284
3801.612305	98.073517
3800.430664	30.627701
3799.248047	-22.020340
3798.066406	52.213741
3796.883789	-4.712328
3795.701172	12.344025
3794.518555	181.548889
3793.335938	-91.024399
3792.152344	2.005510
3790.968750	97.081116
3789.785156	33.679558
3788.601563	-103.641937
3787.417969	-8.694789
3786.233398	69.295807
3785.048828	56.470737
3783.864258	83.712914
3782.678711	22.299532
3781.494141	0.958757
3780.308594	-68.914833
3779.123047	-71.317917
3777.937500	92.798950
3776.750977	-55.138222
3775.564453	180.503357
3774.377930	-26.453907
3773.191406	-58.511829
3772.004883	-120.076523
3770.817383	-25.815832
3769.629883	-5.312645
3768.442383	82.516197
3767.254883	-50.711975
3766.066406	11.778276
3764.878906	-115.134277
3763.690430	-111.613289
3762.500977	-173.323715
3761.312500	10.985431
3760.123047	29.106907
3758.933594	57.702682
3757.744141	-216.368683
3756.554688	-9.193913
3755.364258	-16.409395
3754.173828	28.859835
3752.983398	-18.316710
3751.792969	73.071892
3750.602539	6.955514
3749.411133	7.996025
3748.219727	27.895161
3747.028320	-117.988495
3745.835938	-51.982376
3744.644531	93.672951
3743.452148	65.200806
3742.259766	70.256660
3741.067383	4.016486
3739.874023	9.026284
3738.680664	22.388851
3737.487305	-4.083116
3736.293945	-53.611092
3735.100586	120.930122
3733.906250	16.904797
3732.711914	-89.200867
3731.517578	1.450742
3730.323242	-37.698765
3729.127930	25.657684
3727.932617	3.200705
3726.737305	12.099456
3725.541992	-68.944679
3724.345703	-164.620300
3723.150391	5.184785
3721.954102	24.427629
3720.757813	-71.282333
3719.560547	-171.162079
3718.364258	27.664392
3717.166992	36.351749
3715.969727	-19.712658
3714.771484	-77.870399
3713.574219	41.385544
3712.375977	-14.718524
3711.177734	20.977764
3709.979492	-30.972149
3708.780273	-172.610092
3707.582031	-91.092468
3706.382813	-1.290297
3705.183594	59.275238
3703.983398	21.843002
3702.784180	28.165897
3701.583984	30.296133
3700.383789	117.804375
3699.182617	13.665760
3697.982422	-65.463852
3696.781250	-171.649567
3695.580078	100.990883
3694.378906	107.147652
3693.177734	69.592453
3691.975586	219.245178
3690.773438	19.418299
3689.571289	-28.554453
3688.369141	71.083008
3687.166016	137.403839
3685.962891	45.736195
3684.759766	-14.745870
3683.556641	55.658073
3682.352539	132.246719
3681.149414	32.275398
3679.945313	56.899857
3678.740234	206.049988
3677.536133	128.900604
3676.331055	66.286110
3675.126953	82.524933
3673.920898	196.229309
3672.715820	193.738129
3671.510742	205.748489
3670.304688	267.493042
3669.098633	-116.456757
3667.891602	142.173767
3666.685547	251.511276
3665.478516	159.838715
3664.271484	300.169952
3663.064453	171.220581
3661.857422	241.074295
3660.649414	321.236145
3659.441406	208.870483
3658.233398	121.367157
3657.025391	265.607239
3655.816406	298.074799
3654.607422	400.836945
3653.398438	418.769958
3652.189453	318.842712
3650.980469	371.901703
3649.770508	317.460693
3648.560547	260.962830
3647.350586	365.613922
3646.139648	346.282684
3644.929688	357.929596
3643.718750	396.399292
3642.507813	500.903534
3641.295898	419.600647
3640.084961	536.424683
3638.873047	368.475128
3637.661133	439.861786
3636.449219	406.031586
3635.236328	584.588135
3634.023438	583.709045
3632.810547	488.005280
3631.597656	569.563110
3630.384766	478.004181
3629.170898	553.333984
3627.957031	449.435211
3626.743164	598.863708
3625.529297	680.285706
3624.314453	590.806702
3623.099609	404.622284
3621.884766	625.939819
3620.669922	694.922546
3619.454102	691.873596
3618.239258	588.051514
3617.023438	671.375000
3615.806641	604.581421
3614.590820	778.301453
3613.374023	674.511292
3612.157227	770.061462
3610.940430	797.778870
3609.723633	681.707581
3608.505859	816.202637
3607.288086	728.903442
3606.070313	832.540833
3604.852539	897.140198
3603.633789	965.812012
3602.415039	841.603455
3601.196289	830.255981
3599.977539	1101.927368
3598.758789	828.070557
3597.539063	894.623474
3596.319336	848.415527
3595.099609	873.948914
3593.878906	1010.108826
3592.659180	912.686401
3591.438477	1001.677002
3590.217773	1082.442261
3588.996094	946.147278
3587.775391	881.552795
3586.553711	1066.665405
3585.332031	1130.979248
3584.109375	1252.548828
3582.887695	1040.664429
3581.665039	1010.867615
3580.442383	1185.552856
3579.219727	1227.291748
3577.996094	1115.715332
3576.773438	1137.016602
3575.549805	1223.687744
3574.325195	1153.027466
3573.101563	1300.937744
3571.876953	1144.526855
3570.652344	1192.339355
3569.427734	1368.734985
3568.203125	1304.243164
3566.977539	1233.651367
3565.752930	1344.661255
3564.526367	1404.629395
3563.300781	1378.929932
3562.075195	1345.085938
3560.848633	1337.754028
3559.622070	1432.336304
3558.395508	1349.596680
3557.167969	1366.721069
3555.940430	1483.656616
3554.712891	1327.638794
3553.485352	1548.394287
3552.257813	1522.726929
3551.029297	1590.701538
3549.800781	1542.651001
3548.572266	1468.170288
3547.343750	1519.853027
3546.114258	1591.855103
3544.884766	1580.457520
3543.655273	1764.257080
3542.425781	1655.261719
3541.195313	1871.502197
3539.965820	1671.093018
3538.734375	1732.845093
3537.503906	1806.770142
3536.273438	1789.280640
3535.041992	1651.995239
3533.810547	1701.541748
3532.579102	1696.271729
3531.346680	1904.090942
3530.115234	1872.417603
3528.882813	1846.842529
3527.650391	2050.476563
3526.416992	1951.881226
3525.184570	1991.202759
3523.951172	2105.514648
3522.717773	1891.458008
3521.483398	2096.939697
3520.250000	2012.639526
3519.015625	1999.268555
3517.781250	2164.127930
3516.545898	2089.997070
3515.311523	2157.616455
3514.076172	2152.345215
3512.840820	2319.097900
3511.605469	2358.324707
3510.369141	2249.865723
3509.133789	2325.511719
3507.897461	2251.490723
3506.660156	2367.548096
3505.423828	2293.561035
3504.186523	2346.928955
3502.949219	2313.396240
3501.711914	2306.147949
3500.474609	2260.531494
3499.236328	2348.222656
3497.998047	2282.434570
3496.759766	2297.428955
3495.521484	2338.664063
3494.282227	2607.918701
3493.042969	2707.601563
3491.803711	2514.757568
3490.564453	2402.667236
3489.324219	2522.516602
3488.084961	2489.110352
3486.844727	2614.961182
3485.603516	2700.462158
3484.363281	2441.386963
3483.122070	2543.021484
3481.880859	2684.909912
3480.639648	2556.902832
3479.397461	2567.874023
3478.156250	2760.028320
3476.914063	2847.456055
3475.671875	2765.826172
3474.428711	2762.696289
3473.186523	2679.119873
3471.943359	2820.827637
3470.700195	2685.004395
3469.456055	2800.535889
3468.212891	2914.026855
3466.968750	2764.217285
3465.724609	2737.037354
3464.479492	2699.828125
3463.235352	2871.530029
3461.990234	2743.961670
3460.745117	2909.580322
3459.499023	2920.574463
3458.253906	2791.090088
3457.007813	2830.212402
3455.761719	2833.218262
3454.515625	2930.505859
3453.268555	2797.133301
3452.021484	2703.922363
3450.775391	2662.881104
3449.527344	2750.134277
3448.280273	2851.395264
3447.032227	2874.483154
3445.784180	2993.724854
3444.536133	2744.412842
3443.287109	2703.454102
3442.039063	2716.578857
3440.790039	2707.686035
3439.541016	2550.708252
3438.291016	2701.937988
3437.041992	2743.094238
3435.791992	2914.250488
3434.541992	2689.392822
3433.291016	2786.531006
3432.041016	2733.717529
3430.790039	2814.839844
3429.539063	2722.089600
3428.287109	2707.298340
3427.036133	2756.446045
3425.784180	2837.534912
3424.532227	2894.641113
3423.280273	2760.082031
3422.027344	2713.402832
3420.774414	2552.999512
3419.521484	2648.058594
3418.268555	2625.392822
3417.014648	2712.438965
3415.761719	2482.399414
3414.507813	2802.725830
3413.252930	2626.587158
3411.999023	2572.101074
3410.744141	2607.308105
3409.489258	2594.696289
3408.234375	2651.814209
3406.978516	2547.604980
3405.723633	2479.288330
3404.467773	2578.224121
3403.210938	2525.859863
3401.955078	2586.957520
3400.698242	2474.941406
3399.441406	2494.265381
3398.184570	2342.548340
3396.927734	2423.550537
3395.669922	2291.800049
3394.412109	2500.008545
3393.154297	2483.576660
3391.896484	2326.084961
3390.637695	2407.048828
3389.378906	2090.747070
3388.120117	2253.160889
3386.861328	2330.146729
3385.601563	2284.033203
3384.341797	2490.003418
3383.082031	2211.726318
3381.822266	2223.220215
3380.561523	2149.421143
3379.300781	2327.525146
3378.040039	2233.921387
3376.779297	2233.537109
3375.517578	2233.157471
3374.256836	2205.046143
3372.995117	2056.087891
3371.732422	2129.057129
3370.470703	2073.273193
3369.208008	2005.633423
3367.945313	2050.876465
3366.682617	1935.774780
3365.418945	2034.460693
3364.155273	1937.226563
3362.891602	1942.908325
3361.627930	2035.625854
3360.363281	1964.173950
3359.099609	1920.439697
3357.834961	1847.073730
3356.569336	2032.655273
3355.304688	1902.003174
3354.039063	2006.514160
3352.773438	1840.372192
3351.507813	1703.924805
3350.241211	1999.965454
3348.975586	1903.036865
3347.708984	1792.331543
3346.442383	1634.312744
3345.174805	1821.646118
3343.907227	1701.172607
3342.639648	1663.589600
3341.372070	1801.530518
3340.104492	1740.296387
3338.835938	1809.188477
3337.567383	1645.501831
3336.298828	1684.841064
3335.029297	1795.091431
3333.760742	1513.336304
3332.491211	1710.239380
3331.221680	1718.053711
3329.951172	1755.396118
3328.681641	1556.548218
3327.411133	1550.625732
3326.139648	1593.895264
3324.869141	1700.103149
3323.597656	1617.468628
3322.327148	1672.518433
3321.054688	1643.008667
3319.783203	1615.484863
3318.510742	1595.834106
3317.238281	1505.460938
3315.965820	1646.935547
3314.693359	1509.459106
3313.419922	1277.777344
3312.146484	1474.198853
3310.873047	1352.547974
3309.599609	1484.125366
3308.325195	1539.125977
3307.050781	1388.114380
3305.776367	1449.005615
3304.501953	1433.394287
3303.226563	1460.926636
3301.951172	1486.491333
3300.675781	1529.690918
3299.400391	1400.431519
3298.124023	1437.756958
3296.847656	1290.938599
3295.571289	1408.578003
3294.294922	1310.780518
3293.017578	1299.163208
3291.740234	1455.888184
3290.462891	1485.351807
3289.185547	1276.096924
3287.907227	1307.542358
3286.628906	1268.566895
3285.350586	1417.339600
3284.072266	1407.690308
3282.792969	1310.080933
3281.513672	1423.586426
3280.234375	1365.095459
3278.955078	1419.942993
3277.674805	1392.730347
3276.394531	1287.413574
3275.114258	1396.919312
3273.833984	1346.307129
3272.552734	1287.906860
3271.272461	1256.853271
3269.990234	1319.457764
3268.708984	1348.881348
3267.426758	1226.168945
3266.145508	1292.651489
3264.862305	1246.030029
3263.580078	1209.175659
3262.296875	1357.472900
3261.014648	1256.315186
3259.731445	1174.675293
3258.447266	1221.613525
3257.164063	1326.958008
3255.879883	1173.313110
3254.595703	1303.930664
3253.310547	1175.648438
3252.026367	1203.087402
3250.741211	1127.401855
3249.456055	1077.032227
3248.169922	1121.972290
3246.884766	1118.288574
3245.598633	1106.827637
3244.312500	961.260254
3243.025391	1256.865601
3241.739258	1225.955078
3240.452148	1196.996460
3239.165039	1197.181030
3237.876953	1067.262695
3236.589844	1129.594604
3235.301758	1028.853638
3234.013672	1091.165649
3232.724609	1029.270874
3231.436523	1136.175781
3230.147461	878.400024
3228.857422	998.858521
3227.568359	1057.230835
3226.278320	927.549072
3224.989258	985.909851
3223.698242	931.855103
3222.408203	1123.863159
3221.117188	918.716370
3219.826172	1006.071594
3218.535156	948.174988
3217.244141	1012.256897
3215.952148	878.890442
3214.660156	915.862671
3213.368164	854.147156
3212.076172	949.136292
3210.783203	806.202209
3209.490234	930.161072
3208.197266	1023.137817
3206.903320	965.308228
3205.610352	766.426025
3204.316406	882.555603
3203.022461	809.322815
3201.727539	780.535278
3200.432617	778.789490
3199.137695	672.785583
3197.842773	734.753906
3196.547852	802.486450
3195.251953	773.707642
3193.956055	924.352051
3192.660156	762.464417
3191.363281	743.338684
3190.067383	731.930725
3188.770508	772.569641
3187.472656	774.639099
3186.175781	711.188782
3184.877930	846.197144
3183.580078	738.442444
3182.282227	675.019287
3180.983398	696.335815
3179.684570	559.778625
3178.385742	623.445374
3177.086914	612.030151
3175.788086	744.917786
3174.488281	618.052490
3173.188477	458.533752
3171.887695	616.351746
3170.587891	645.295471
3169.287109	549.277893
3167.986328	610.880005
3166.685547	593.674927
3165.383789	593.757324
3164.082031	545.815613
3162.780273	501.727631
3161.478516	519.090942
3160.175781	450.055878
3158.873047	375.283447
3157.570313	500.096863
3156.267578	482.886627
3154.963867	423.474945
3153.660156	517.501343
3152.356445	488.771515
3151.052734	548.229614
3149.748047	391.072845
3148.443359	379.608765
3147.138672	538.659546
3145.833984	377.743713
3144.528320	396.907990
3143.222656	370.102539
3141.916992	483.056793
3140.610352	360.523529
3139.304688	295.444244
3137.998047	502.078430
3136.691406	341.330414
3135.383789	456.051605
3134.076172	543.950012
3132.768555	222.662308
3131.460938	251.299728
3130.153320	337.252808
3128.844727	228.262634
3127.536133	256.855560
3126.227539	325.542267
3124.917969	338.809875
3123.608398	170.677979
3122.298828	187.772461
3120.989258	166.680191
3119.678711	286.793518
3118.369141	336.264069
3117.057617	372.350067
3115.747070	208.167160
3114.436523	175.605759
3113.125000	108.731064
3111.813477	127.643753
3110.500977	295.178528
3109.189453	184.471466
3107.876953	159.516251
3106.564453	174.557144
3105.250977	195.293121
3103.937500	97.975266
3102.625000	221.489487
3101.310547	173.663208
3099.997070	13.586871
3098.682617	95.161331
3097.368164	117.732452
3096.053711	107.957397
3094.739258	90.572456
3093.423828	126.406418
3092.108398	-18.334482
3090.792969	173.301849
3089.476563	129.275070
3088.160156	39.669350
3086.843750	62.133076
3085.527344	209.893738
3084.210938	103.209091
3082.893555	7.941113
3081.576172	102.460136
3080.257813	64.122261
3078.940430	105.461235
3077.622070	50.048668
3076.303711	47.739307
3074.984375	-134.682068
3073.666016	-80.113289
3072.346680	-27.474010
3071.027344	135.027069
3069.707031	-5.640736
3068.387695	-104.594917
3067.067383	6.664734
3065.747070	119.764511
3064.425781	155.198135
3063.104492	-49.740135
3061.783203	-29.444866
3060.461914	-9.169028
3059.140625	105.657646
3057.818359	97.509323
3056.496094	51.538700
3055.173828	35.819958
3053.850586	25.762781
3052.527344	10.029663
3051.204102	43.410603
3049.880859	108.878220
3048.556641	96.878311
3047.233398	9.349247
3045.909180	97.401405
3044.583984	-67.506294
3043.259766	-7.801640
3041.934570	157.519257
3040.608398	-195.974335
3039.283203	39.075989
3037.957031	-10.702900
3036.630859	-32.196266
3035.304688	-114.007660
3033.978516	181.099213
3032.651367	65.336693
3031.324219	62.632988
3029.997070	-201.874222
3028.668945	-149.944321
3027.341797	-77.334023
3026.013672	74.290466
3024.684570	-20.693937
3023.356445	8.534197
3022.027344	158.132858
3020.698242	-4.559496
3019.368164	131.792419
3018.039063	-72.219360
3016.708984	9.556231
3015.378906	-23.355791
3014.047852	33.922821
3012.717773	-177.479736
3011.386719	88.275078
3010.055664	-78.013290
3008.723633	108.732597
3007.392578	-33.116810
3006.060547	37.157833
3004.727539	22.947104
3003.395508	85.654709
3002.062500	-26.125063
3000.729492	141.561600
2999.396484	-28.337091
2998.062500	-81.955658
2996.728516	108.095268
2995.394531	-52.370850
2994.060547	-51.657742
2992.725586	-26.608948
2991.390625	-27.802841
2990.055664	23.421696
2988.720703	70.869339
2987.384766	80.845940
2986.048828	42.149124
2984.712891	85.781815
2983.376953	-55.815575
2982.040039	98.139343
2980.703125	16.405167
2979.366211	106.693802
2978.028320	-96.542473
2976.690430	143.215714
2975.352539	259.544525
2974.014648	-38.918339
2972.675781	-36.565369
2971.336914	103.964638
2969.998047	25.979292
2968.659180	5.878983
2967.319336	133.211639
2965.979492	-34.345116
2964.639648	-32.077404
2963.299805	-20.496954
2961.958984	-122.697472
2960.618164	-144.696594
2959.277344	19.720518
2957.935547	20.038261
2956.593750	216.008545
2955.251953	50.445831
2953.910156	33.954605
2952.567383	-53.318653
2951.225586	-26.983311
2949.881836	-54.667343
2948.539063	-86.072845
2947.195313	59.306953
2945.852539	176.711395
2944.507813	173.135452
2943.164063	-51.771301
2941.819336	-114.832245
2940.474609	78.680237
2939.129883	119.684113
2937.784180	-157.135162
2936.439453	78.968689
2935.093750	56.743534
2933.747070	116.233292
2932.401367	-37.862587
2931.054688	45.731056
2929.708008	38.322941
2928.360352	-13.640787
2927.013672	-65.594406
2925.666016	-9.944450
2924.318359	-41.505226
2922.969727	71.576614
2921.621094	30.710424
2920.272461	-256.699493
2918.923828	-132.561325
2917.575195	-197.492264
2916.225586	35.862980
2914.875977	-136.540329
2913.525391	-49.621349
2912.175781	7.629177
2910.825195	16.708838
2909.474609	-5.692673
2908.123047	-111.376381
2906.772461	4.989284
2905.420898	-146.925293
2904.069336	-28.778999
2902.716797	83.756966
2901.364258	-36.699909
2900.011719	-109.067589
2898.659180	-18.796247
2897.305664	-39.435997
2895.953125	-10.200058
2894.599609	-101.041214
2893.245117	42.646976
2891.891602	-86.965851
2890.537109	58.482903
2889.181641	52.529369
2887.827148	-130.562042
2886.471680	219.535095
2885.116211	-57.612427
2883.760742	-24.866909
2882.405273	-113.828911
2881.048828	-99.548630
2879.692383	-33.683865
2878.334961	10.026699
2876.978516	-104.721741
2875.621094	62.365871
2874.263672	17.599550
2872.905273	50.162453
2871.547852	-71.923996
2870.189453	89.449654
2868.830078	90.654503
2867.471680	-141.795807
2866.112305	-131.374847
2864.752930	202.696167
2863.393555	14.443637
2862.033203	197.584839
2860.672852	-99.062317
2859.312500	-63.002712
2857.952148	0.587902
2856.590820	36.583023
2855.229492	68.878708
2853.868164	64.426140
2852.505859	-6.131662
2851.144531	-19.771105
2849.782227	23.464712
2848.418945	-32.408592
2847.056641	119.014458
2845.693359	-46.922565
2844.330078	100.747742
2842.965820	-105.483032
2841.602539	91.604126
2840.238281	50.361526
2838.874023	197.842529
2837.508789	262.814087
2836.143555	126.280754
2834.778320	50.216190
2833.413086	201.187790
2832.046875	-74.409584
2830.681641	5.128545
2829.314453	-76.401985
2827.948242	72.591698
2826.581055	77.018402
2825.214844	68.634399
2823.846680	-54.951057
2822.479492	57.308098
2821.111328	153.057922
2819.743164	16.699533
2818.375000	75.856972
2817.005859	155.066635
2815.636719	99.095856
2814.267578	-106.580727
2812.898438	87.582794
2811.528320	-88.839119
2810.158203	143.534164
2808.788086	41.943905
2807.416992	182.971344
2806.046875	130.626862
2804.675781	65.522171
2803.303711	-32.386669
2801.932617	82.978134
2800.560547	145.436279
2799.188477	89.433884
2797.815430	120.870529
2796.443359	254.272324
2795.070313	-60.315540
2793.696289	182.263199
2792.323242	38.877445
2790.949219	10.625892
2789.575195	-17.625662
2788.201172	-45.877216
2786.826172	-74.128769
2785.451172	66.262657
2784.076172	19.336271
2782.701172	12.402638
2781.325195	-9.083090
2779.949219	140.215942
2778.573242	0.613226
2777.196289	209.756271
2775.819336	6.610876
2774.442383	-53.044643
2773.065430	155.949890
2771.687500	50.889427
2770.309570	-65.028786
2768.931641	221.808548
2767.553711	209.258865
2766.174805	2.668842
2764.795898	84.413490
2763.416992	-20.588230
2762.037109	66.535728
2760.657227	46.710201
2759.277344	57.676411
2757.897461	39.647251
2756.516602	104.907837
2755.135742	7.182837
2753.754883	79.640221
2752.373047	-45.217144
2750.991211	21.764130
2749.609375	-122.957939
2748.227539	-122.936073
2746.844727	75.991737
2745.461914	39.783596
2744.079102	-162.728455
2742.696289	180.639191
2741.312500	187.758453
2739.928711	-106.843163
2738.544922	75.512054
2737.160156	10.369876
2735.775391	8.434532
2734.390625	38.980446
2733.005859	-73.079300
2731.620117	-28.122791
2730.234375	51.082546
2728.848633	146.479095
2727.461914	74.101837
2726.076172	3.547817
2724.689453	106.066650
2723.301758	-20.373909
2721.915039	-9.818370
2720.527344	132.236755
2719.138672	144.523849
2717.750977	5.518976
2716.362305	86.224579
2714.973633	107.477806
2713.584961	-35.080727
2712.195313	-15.641704
2710.806641	52.360809
2709.416016	-145.914810
2708.026367	-20.391596
2706.635742	124.842979
2705.245117	113.602669
2703.854492	125.719482
2702.462891	218.682373
2701.072266	94.198967
2699.680664	79.324310
2698.288086	288.940216
2696.896484	54.936939
2695.503906	-46.139286
2694.110352	125.641190
2692.717773	31.743887
2691.324219	102.936653
2689.930664	-32.208900
2688.537109	117.859955
2687.142578	59.841084
2685.748047	57.409622
2684.353516	103.364395
2682.958984	74.017883
2681.563477	87.668495
2680.167969	162.209198
2678.771484	105.953018
2677.375977	47.921272
2675.979492	68.669754
2674.583008	76.867805
2673.185547	43.881168
2671.789063	146.889420
2670.391602	156.811569
2668.993164	207.849716
2667.595703	180.175674
2666.197266	63.099018
2664.798828	24.708084
2663.400391	145.379807
2662.000977	-7.402946
2660.601563	31.017521
2659.202148	249.811096
2657.801758	-17.239546
2656.401367	53.252777
2655.000977	-17.319384
2653.600586	-28.980469
2652.199219	173.472076
2650.797852	4.749692
2649.396484	62.609177
2647.995117	75.848358
2646.592773	51.620930
2645.190430	178.914719
2643.787109	136.819931
2642.384766	73.351364
2640.981445	-13.272465
2639.578125	26.591572
2638.173828	-79.611855
2636.769531	-41.564816
2635.365234	137.089111
2633.960938	135.894806
2632.555664	-50.385712
2631.150391	56.951263
2629.745117	128.655701
2628.339844	225.214844
2626.933594	142.130936
2625.527344	9.288372
2624.121094	45.334564
2622.713867	147.097885
2621.306641	62.254738
2619.899414	-11.912683
2618.492188	91.534050
2617.083984	-41.239822
2615.675781	-150.897690
2614.266602	-31.566334
2612.858398	4.303531
2611.449219	50.784588
2610.040039	1.441976
2608.629883	-31.939966
2607.220703	-91.915428
2605.810547	101.626297
2604.399414	45.150963
2602.989258	-21.944414
2601.578125	-48.282566
2600.166992	-133.083466
2598.754883	-177.138031
2597.343750	-118.481781
2595.930664	46.347569
2594.518555	18.167881
2593.106445	-34.792240
2591.693359	41.408669
2590.280273	-52.258888
2588.866211	-0.883738
2587.452148	115.882576
2586.038086	96.455025
2584.624023	-48.479923
2583.208984	-20.189856
2581.794922	117.625809
2580.378906	-223.373642
2578.963867	-228.672836
2577.547852	-2.667244
2576.131836	55.510197
2574.715820	13.036172
2573.298828	62.324680
2571.881836	-26.050152
2570.464844	86.699692
2569.047852	-28.134850
2567.629883	130.379715
2566.211914	-90.242035
2564.793945	80.527184
2563.375000	-9.624305
2561.956055	-50.420155
2560.537109	-3.135842
2559.118164	-65.087845
2557.698242	26.163105
2556.278320	-5.882012
2554.857422	-2.733162
2553.437500	246.790466
2552.016602	-17.601496
2550.595703	24.195480
2549.173828	-87.068848
2547.752930	-3.106175
2546.330078	19.256741
2544.908203	1.167776
2543.485352	158.809097
2542.063477	121.334320
2540.639648	-112.917427
2539.216797	-124.020798
2537.792969	79.095932
2536.369141	185.548126
2534.945313	155.019287
2533.520508	77.089127
2532.095703	-79.790054
2530.670898	128.277176
2529.245117	-44.381481
2527.819336	75.867966
2526.393555	52.278347
2524.967773	105.808548
2523.541016	134.755005
2522.114258	-90.409409
2520.687500	192.551544
2519.260742	116.307671
2517.833008	99.608490
2516.405273	77.642746
2514.976563	150.186279
2513.547852	-69.599472
2512.119141	-105.586693
2510.690430	10.623921
2509.261719	13.073286
2507.832031	-164.631760
2506.402344	89.578468
2504.971680	34.245358
2503.541016	-66.528198
2502.110352	33.666882
2500.679688	32.471104
2499.248047	-94.516571
2497.816406	98.108559
2496.384766	-0.949524
2494.953125	18.714352
2493.520508	85.464706
2492.087891	50.957272
2490.655273	-42.877407
2489.221680	-96.585976
2487.788086	55.489281
2486.354492	17.428324
2484.919922	-18.904400
2483.485352	119.043388
2482.050781	-150.844635
2480.616211	4.448991
2479.180664	227.582596
2477.745117	83.143654
2476.309570	-38.627701
2474.873047	-59.413029
2473.437500	3.333988
2472.000000	78.199753
2470.563477	106.042915
2469.125977	24.258247
2467.688477	78.129608
2466.250977	123.261375
2464.812500	65.776566
2463.374023	89.977654
2461.935547	164.537354
2460.497070	101.789536
2459.057617	-251.049103
2457.618164	50.952888
2456.177734	35.053204
2454.738281	-41.620426
2453.297852	161.141861
2451.857422	16.738352
2450.416016	-9.666090
2448.974609	19.420595
2447.533203	38.061749
2446.091797	63.604885
2444.649414	35.362282
2443.207031	173.492065
2441.764648	105.326126
2440.321289	54.478439
2438.877930	188.966568
2437.434570	94.768867
2435.990234	50.786392
2434.546875	-60.715012
2433.101563	128.946503
2431.657227	-152.176819
2430.211914	284.774780
2428.766602	86.695869
2427.321289	134.245529
2425.875977	164.455826
2424.429688	-21.476437
2422.983398	-43.166355
2421.536133	59.534004
2420.089844	227.824417
2418.642578	138.631744
2417.194336	-14.463171
2415.747070	-91.547554
2414.298828	-61.606773
2412.849609	96.007416
2411.401367	165.526230
2409.952148	69.349960
2408.502930	30.102930
2407.052734	113.280548
2405.603516	44.664005
2404.152344	20.849125
2402.703125	69.418098
2401.251953	116.195595
2399.800781	154.307602
2398.349609	101.076248
2396.898438	56.443745
2395.445313	1.449588
2393.994141	23.927391
2392.541016	-20.779108
2391.087891	154.764908
2389.634766	113.423531
2388.181641	233.758133
2386.728516	350.570343
2385.275391	169.835541
2383.820313	-144.969559
2382.365234	76.574440
2380.910156	151.927368
2379.455078	7.299977
2378.000000	166.735092
2376.544922	-8.822123
2375.089844	76.647690
2373.632813	155.164871
2372.175781	-59.885059
2370.718750	78.615898
2369.261719	117.515251
2367.804688	118.625328
2366.347656	-56.948547
2364.888672	17.836151
2363.429688	104.552696
2361.972656	-12.748901
2360.513672	193.818207
2359.054688	165.544235
2357.593750	263.985138
2356.134766	127.738426
2354.673828	-27.343616
2353.214844	-76.248299
2351.753906	141.818909
2350.292969	3.822291
2348.832031	-29.793972
2347.369141	-17.268148
2345.908203	-1.349820
2344.445313	120.517799
2342.984375	-60.273090
2341.521484	37.548962
2340.058594	-47.555359
2338.593750	173.138290
2337.130859	81.126999
2335.667969	13.021856
2334.203125	57.578320
2332.738281	-10.595219
2331.273438	47.519630
2329.808594	35.604351
2328.343750	-85.537514
2326.878906	61.130993
2325.412109	-37.899620
2323.945313	101.778152
2322.478516	-41.628822
2321.011719	109.839256
2319.544922	182.817001
2318.078125	155.202682
2316.611328	38.980511
2315.142578	-44.898403
2313.673828	-16.409998
2312.205078	-16.917717
2310.736328	55.717926
2309.267578	51.703804
2307.798828	59.556362
2306.328125	21.416826
2304.859375	-67.754631
2303.388672	-53.234024
2301.917969	32.632984
2300.447266	-41.344185
2298.974609	-149.340973
2297.503906	-19.470905
2296.031250	-69.769310
2294.560547	163.534286
2293.087891	-146.654251
2291.615234	38.927208
2290.142578	32.598827
2288.667969	-99.363060
2287.195313	2.825270
2285.720703	60.803501
2284.246094	-8.479424
2282.773438	-147.280411
2281.296875	-21.661402
2279.822266	-358.817596
2278.347656	48.005642
2276.871094	81.879143
2275.396484	-80.775787
2273.919922	-52.068367
2272.443359	47.690029
2270.966797	-116.719490
2269.488281	-101.729324
2268.011719	-24.166601
2266.533203	-41.445812
2265.056641	-106.108704
2263.578125	-67.657890
2262.099609	40.049770
2260.619141	-83.946762
2259.140625	-30.465157
2257.662109	55.050209
2256.181641	61.057045
2254.701172	-61.359802
2253.220703	-90.898720
2251.740234	-29.303995
2250.259766	-15.051352
2248.777344	-21.129660
2247.296875	67.255714
2245.814453	93.112465
2244.332031	-5.909685
2242.849609	-258.405609
2241.367188	-190.507263
2239.884766	-227.201126
2238.400391	-122.386650
2236.917969	-37.865990
2235.433594	-190.993637
2233.949219	-153.783478
2232.464844	-93.065758
2230.978516	82.040070
2229.494141	65.143585
2228.009766	14.539432
2226.523438	-115.202591
2225.037109	-115.411453
2223.550781	84.477173
2222.064453	-6.689193
2220.576172	122.351387
2219.089844	79.849998
2217.601563	-70.270027
2216.115234	29.994623
2214.626953	98.223274
2213.138672	0.088441
2211.648438	56.406364
2210.160156	-35.077919
2208.669922	68.110886
2207.181641	-51.983093
2205.691406	17.495064
2204.201172	-50.671371
2202.710938	-35.007904
2201.218750	72.799294
2199.728516	44.726650
2198.236328	55.138203
2196.744141	155.984543
2195.251953	99.231392
2193.759766	45.792694
2192.267578	129.656616
2190.775391	-119.802895
2189.281250	-19.337992
2187.787109	-21.077740
2186.294922	25.679129
2184.800781	-41.441841
2183.304688	35.247528
2181.810547	66.710625
2180.316406	-5.572448
2178.820313	-118.032982
2177.324219	199.063705
2175.828125	36.352291
2174.332031	89.181305
2172.835938	121.882698
2171.337891	102.713310
2169.841797	3.364192
2168.343750	110.982857
2166.845703	-45.223858
2165.347656	10.507643
2163.849609	-130.722137
2162.351563	-78.454292
2160.851563	-9.616053
2159.353516	87.504150
2157.853516	-70.568230
2156.353516	129.716919
2154.853516	-176.736176
2153.353516	70.015762
2151.851563	101.699409
2150.351563	219.933426
2148.849609	-58.256592
2147.347656	118.079308
2145.845703	139.490875
2144.343750	282.309082
2142.839844	265.262177
2141.337891	55.230373
2139.833984	51.415207
2138.330078	62.502422
2136.826172	-132.614487
2135.322266	112.729485
2133.818359	-27.608313
2132.314453	54.671890
2130.808594	-72.461052
2129.302734	66.106781
2127.796875	103.271828
2126.291016	22.495964
2124.785156	-104.784332
2123.279297	91.501221
2121.771484	-85.666245
2120.263672	-105.249512
2118.757813	256.559418
2117.250000	133.989212
2115.740234	129.072876
2114.232422	299.800690
2112.724609	71.051979
2111.214844	-98.053902
2109.705078	40.925060
2108.195313	-23.907635
2106.685547	152.950912
2105.175781	261.803436
2103.664063	36.209343
2102.154297	78.724510
2100.642578	192.266525
2099.130859	102.256424
2097.619141	38.674683
2096.107422	44.494934
2094.595703	83.306038
2093.082031	250.917877
2091.570313	314.325867
2090.056641	20.785440
2088.542969	130.303131
2087.029297	115.861366
2085.513672	172.325348
2084.000000	88.421677
2082.484375	-25.246281
2080.968750	252.112564
2079.455078	140.003448
2077.937500	21.221273
2076.421875	-15.102046
2074.906250	-34.989288
2073.388672	221.953476
2071.873047	30.504824
2070.355469	165.273788
2068.837891	41.293293
2067.320313	277.986206
2065.800781	64.955101
2064.283203	-16.322481
2062.763672	121.253014
2061.244141	-14.469713
2059.724609	86.721298
2058.205078	204.254822
2056.685547	91.425835
2055.164063	129.823715
2053.644531	222.419205
2052.123047	120.934929
2050.601563	155.818695
2049.080078	119.975883
2047.558594	259.843048
2046.035156	264.890076
2044.513672	128.690094
2042.990234	102.438522
2041.466797	214.000641
2039.943359	204.021042
2038.419922	-20.941568
2036.896484	6.726171
2035.371094	172.045364
2033.847656	142.143936
2032.322266	305.599091
2030.796875	-57.186260
2029.271484	-110.188568
2027.744141	256.140259
2026.218750	180.032410
2024.691406	210.308502
2023.164063	150.455826
2021.636719	52.910042
2020.109375	-54.479134
2018.582031	232.458344
2017.054688	265.640564
2015.525391	187.490128
2013.996094	320.260345
2012.468750	269.825897
2010.939453	220.953476
2009.408203	211.227036
2007.878906	199.837418
2006.347656	186.722824
2004.818359	106.617378
2003.287109	90.132797
2001.755859	277.673370
2000.224609	420.999054
1998.691406	276.945709
1997.160156	-20.456898
1995.626953	181.349579
1994.093750	224.802979
1992.560547	-23.707857
1991.027344	1.709810
1989.494141	152.565933
1987.960938	228.331375
1986.425781	157.333755
1984.890625	289.925385
1983.355469	153.672836
1981.820313	-86.798660
1980.285156	-83.035820
1978.750000	169.693985
1977.212891	243.221893
1975.675781	209.277573
1974.138672	199.683502
1972.601563	129.857864
1971.064453	89.267647
1969.527344	225.832993
1967.988281	40.429615
1966.451172	121.576218
1964.912109	100.242676
1963.373047	26.876005
1961.833984	167.851425
1960.292969	227.491623
1958.753906	66.304207
1957.212891	193.988953
1955.671875	31.098633
1954.130859	171.598343
1952.589844	201.683655
1951.048828	187.911453
1949.505859	-64.286629
1947.964844	297.963135
1946.421875	201.316757
1944.878906	88.446564
1943.335938	101.929008
1941.792969	-51.481724
1940.248047	63.897629
1938.705078	-31.271378
1937.160156	126.027878
1935.615234	-90.641235
1934.070313	-37.061634
1932.525391	132.915405
1930.978516	187.896652
1929.433594	115.089310
1927.886719	-37.000450
1926.339844	-4.810842
1924.792969	-17.941175
1923.246094	161.153778
1921.699219	164.040726
1920.150391	-93.189507
1918.601563	-12.885028
1917.052734	47.960339
1915.503906	2.196526
1913.955078	179.099258
1912.406250	212.280167
1910.855469	105.021210
1909.306641	94.556343
1907.755859	82.396309
1906.205078	36.334068
1904.654297	1.524273
1903.101563	189.022049
1901.550781	-0.574833
1899.998047	73.991936
1898.447266	61.546875
1896.894531	81.227036
1895.339844	268.231842
1893.787109	-90.463470
1892.234375	-51.600845
1890.679688	157.694839
1889.125000	284.824524
1887.570313	-41.643028
1886.015625	-247.439880
1884.460938	152.828888
1882.906250	160.737885
1881.349609	203.913940
1879.792969	-77.489761
1878.236328	137.486145
1876.679688	169.263962
1875.123047	86.990570
1873.566406	41.625355
1872.007813	177.550781
1870.449219	8.514063
1868.890625	-61.035183
1867.332031	24.977694
1865.773438	232.783585
1864.214844	66.912224
1862.654297	255.269302
1861.093750	209.533905
1859.533203	221.458420
1857.972656	191.687820
1856.412109	182.710846
1854.851563	247.354111
1853.289063	179.019211
1851.728516	337.996063
1850.166016	178.380402
1848.603516	130.787109
1847.039063	327.879425
1845.476563	-49.247776
1843.914063	115.785522
1842.349609	280.677643
1840.785156	176.955780
1839.220703	74.839165
1837.656250	346.576324
1836.091797	271.552521
1834.525391	-46.252789
1832.958984	-57.402126
1831.392578	-66.982872
1829.826172	146.847275
1828.259766	110.038025
1826.693359	-1.769473
1825.125000	227.736130
1823.558594	-11.683567
1821.990234	177.810440
1820.421875	134.468353
1818.853516	344.515320
1817.285156	218.244843
1815.714844	83.997452
1814.144531	104.271523
1812.576172	296.526428
1811.005859	305.552063
1809.433594	220.598969
1807.863281	134.099030
1806.292969	92.162331
1804.720703	48.592216
1803.148438	270.617676
1801.576172	196.770493
1800.003906	83.185997
1798.431641	154.001480
1796.857422	169.112076
1795.285156	133.391312
1793.710938	167.519501
1792.136719	-158.893433
1790.562500	76.897247
1788.986328	182.358887
1787.412109	160.826080
1785.835938	121.791588
1784.259766	192.224731
1782.683594	7.237466
1781.107422	25.301071
1779.531250	56.027477
1777.955078	213.542282
1776.376953	101.512100
1774.798828	-21.576130
1773.220703	137.366104
1771.642578	129.921448
1770.064453	-160.991516
1768.484375	43.723534
1766.906250	86.924652
1765.326172	-262.422699
1763.746094	209.562988
1762.166016	35.913570
1760.583984	96.369957
1759.003906	0.284306
1757.421875	247.264740
1755.841797	2.595016
1754.259766	203.633301
1752.675781	50.630283
1751.093750	62.008350
1749.511719	182.352203
1747.927734	158.918457
1746.343750	-50.792309
1744.759766	260.441284
1743.175781	-89.649651
1741.591797	2.160178
1740.005859	-63.839306
1738.421875	242.410782
1736.835938	-1.777906
1735.250000	31.583374
1733.664063	159.501175
1732.076172	199.089737
1730.490234	-167.754318
1728.902344	-208.433990
1727.316406	121.021446
1725.728516	181.078247
1724.138672	22.278194
1722.550781	31.986403
1720.962891	68.450066
1719.373047	-9.968280
1717.783203	160.161316
1716.193359	47.183289
1714.603516	262.850311
1713.013672	-43.415009
1711.421875	390.613312
1709.830078	119.005676
1708.240234	17.219110
1706.648438	202.863205
1705.054688	438.659515
1703.462891	319.613007
1701.871094	142.559158
1700.277344	351.599274
1698.683594	303.266418
1697.089844	11.842600
1695.496094	172.223053
1693.902344	197.717117
1692.306641	260.809113
1690.710938	327.033905
1689.117188	256.963196
1687.521484	61.576790
1685.923828	342.430237
1684.328125	295.931854
1682.730469	272.928833
1681.134766	284.438629
1679.537109	418.007904
1677.939453	406.036407
1676.341797	611.548279
1674.742188	84.987434
1673.144531	373.423523
1671.544922	322.476044
1669.945313	348.173309
1668.345703	420.779816
1666.746094	374.643921
1665.144531	344.149384
1663.544922	335.605377
1661.943359	464.477844
1660.341797	388.824036
1658.740234	416.256104
1657.138672	357.888092
1655.535156	390.043549
1653.933594	196.079742
1652.330078	172.195801
1650.726563	377.569733
1649.123047	495.604706
1647.519531	372.057343
1645.914063	257.921539
1644.310547	200.000992
1642.705078	539.304321
1641.099609	473.624298
1639.494141	249.211807
1637.888672	328.485535
1636.281250	354.830505
1634.675781	351.684326
1633.068359	567.907959
1631.460938	362.598602
1629.853516	347.139801
1628.244141	188.678696
1626.636719	538.652039
1625.027344	200.060440
1623.417969	253.205597
1621.808594	321.922333
1620.199219	314.568848
1618.589844	439.263214
1616.978516	427.319092
1615.369141	87.980713
1613.757813	372.632629
1612.146484	410.546753
1610.535156	516.760925
1608.921875	339.163666
1607.310547	335.394684
1605.697266	251.054306
1604.083984	512.435486
1602.470703	377.093658
1600.857422	203.150803
1599.242188	433.577942
1597.628906	481.283173
1596.013672	180.653244
1594.398438	53.589794
1592.783203	322.841705
1591.167969	471.366821
1589.550781	446.617310
1587.935547	168.335938
1586.318359	398.957611
1584.701172	249.246597
1583.083984	234.152969
1581.466797	392.224426
1579.847656	247.454788
1578.230469	152.288666
1576.611328	281.154449
1574.992188	461.003265
1573.373047	333.656281
1571.751953	252.721176
1570.132813	404.948029
1568.511719	193.071106
1566.890625	106.310471
1565.269531	289.551758
1563.648438	238.448090
1562.027344	281.490540
1560.404297	336.908813
1558.783203	138.183594
1557.160156	432.578247
1555.537109	272.583527
1553.912109	369.882660
1552.289063	467.269897
1550.664063	458.474426
1549.041016	560.616089
1547.416016	379.678436
1545.791016	381.975739
1544.164063	241.315079
1542.539063	213.090637
1540.912109	309.478516
1539.287109	295.292236
1537.660156	304.239716
1536.033203	188.843292
1534.404297	-132.255096
1532.777344	259.495270
1531.148438	253.490891
1529.519531	-5.689812
1527.890625	-6.811647
1526.261719	226.950409
1524.632813	57.251450
1523.001953	61.031334
1521.373047	227.498856
1519.742188	429.247894
1518.111328	238.621475
1516.478516	219.808075
1514.847656	182.759415
1513.214844	308.201477
1511.583984	79.940826
1509.951172	38.686451
1508.318359	279.258942
1506.683594	-89.351456
1505.050781	111.605843
1503.416016	-17.893261
1501.783203	137.325027
1500.148438	145.764587
1498.511719	-142.325272
1496.876953	135.474365
1495.242188	179.445374
1493.605469	211.278458
1491.968750	102.677361
1490.332031	37.019821
1488.695313	261.671844
1487.058594	68.024788
1485.419922	65.377670
1483.781250	67.445084
1482.142578	-6.643294
1480.503906	326.746094
1478.865234	204.100372
1477.226563	-99.812172
1475.585938	166.699112
1473.945313	104.005997
1472.304688	349.310394
1470.664063	-171.713104
1469.023438	84.492867
1467.380859	141.207718
1465.740234	161.521515
1464.097656	390.508148
1462.455078	79.235359
1460.812500	40.621872
1459.167969	390.098389
1457.525391	239.173035
1455.880859	263.325806
1454.236328	354.516174
1452.591797	389.576813
1450.947266	234.803375
1449.302734	245.866516
1447.656250	398.340820
1446.009766	180.315567
1444.363281	326.975098
1442.716797	230.822006
1441.070313	184.954681
1439.421875	265.202576
1437.775391	222.698074
1436.126953	43.832050
1434.478516	318.661163
1432.830078	270.570831
1431.179688	325.731384
1429.531250	421.970428
1427.880859	178.883972
1426.230469	308.754181
1424.580078	213.048569
1422.929688	490.082184
1421.279297	240.277588
1419.626953	210.220520
1417.974609	395.248810
1416.322266	501.689240
1414.669922	394.952637
1413.017578	466.900970
1411.363281	371.128784
1409.710938	301.282990
1408.056641	595.901917
1406.402344	370.718475
1404.748047	183.576965
1403.091797	209.664810
1401.437500	488.140442
1399.781250	226.110733
1398.125000	503.299622
1396.468750	259.844391
1394.812500	179.638229
1393.154297	378.737030
1391.498047	255.157867
1389.839844	151.404785
1388.181641	163.971848
1386.523438	71.197495
1384.865234	-182.611069
1383.205078	15.886549
1381.544922	56.312431
1379.884766	59.251106
1378.224609	24.730453
1376.564453	53.641628
1374.904297	191.100388
1373.242188	-74.621864
1371.580078	-73.738396
1369.919922	-144.861847
1368.255859	54.923893
1366.593750	382.627563
1364.931641	-235.174347
1363.267578	-19.892645
1361.603516	-186.179520
1359.939453	-152.393860
1358.275391	-52.339890
1356.611328	216.055130
1354.945313	-119.026711
1353.279297	8.556146
1351.613281	-51.313034
1349.947266	-121.461929
1348.281250	-164.380341
1346.615234	-184.587357
1344.947266	-120.620216
1343.279297	-68.473564
1341.611328	-317.416504
1339.943359	-162.948654
1338.275391	-255.552017
1336.605469	71.495171
1334.935547	-161.490479
1333.267578	-100.705002
1331.597656	69.531708
1329.925781	-28.001888
1328.255859	-192.620911
1326.583984	5.069096
1324.912109	-129.165543
1323.240234	-22.379179
1321.568359	5.328938
1319.896484	107.970856
1318.224609	-17.873014
1316.550781	62.734802
1314.876953	-67.110794
1313.203125	85.576851
1311.529297	89.092949
1309.853516	154.026321
1308.179688	348.993439
1306.503906	90.451172
1304.828125	151.498779
1303.152344	251.515427
1301.474609	22.130215
1299.798828	70.373100
1298.121094	-79.446976
1296.443359	167.441788
1294.765625	283.318939
1293.087891	265.286224
1291.410156	59.810734
1289.730469	222.447052
1288.050781	106.828979
1286.371094	18.267267
1284.691406	537.125366
1283.011719	-70.311295
1281.332031	96.238632
1279.650391	380.426971
1277.968750	502.643799
1276.287109	345.551331
1274.605469	484.509155
1272.921875	307.127075
1271.240234	199.857956
1269.556641	266.640350
1267.873047	243.032639
1266.189453	253.800568
1264.505859	186.112198
1262.820313	157.266357
1261.134766	386.828217
1259.451172	199.658768
1257.765625	300.524292
1256.078125	407.509552
1254.392578	219.646301
1252.705078	86.934692
1251.019531	1.911256
1249.332031	103.833023
1247.642578	192.612885
1245.955078	299.340546
1244.267578	230.051117
1242.578125	295.733887
1240.888672	189.933289
1239.199219	48.889553
1237.509766	181.813614
1235.818359	-38.577717
1234.128906	145.032074
1232.437500	234.182404
1230.746094	367.863373
1229.054688	383.489014
1227.363281	59.508438
1225.669922	291.323608
1223.976563	159.956757
1222.283203	108.605080
1220.589844	44.213787
1218.896484	86.343315
1217.203125	85.886139
1215.507813	166.812057
1213.812500	367.403473
1212.117188	-1.089732
1210.421875	62.787346
1208.726563	119.493546
1207.029297	145.468658
1205.332031	67.046516
1203.636719	75.778633
1201.937500	153.990158
1200.240234	102.796967
1198.542969	269.733093
1196.843750	167.491745
1195.144531	225.918823
1193.445313	369.879364
1191.746094	171.277405
1190.046875	155.341202
1188.345703	255.810150
1186.644531	171.245651
1184.943359	469.055603
1183.242188	249.749496
1181.541016	98.338776
1179.837891	120.546448
1178.136719	280.984436
1176.433594	379.937164
1174.730469	304.403656
1173.027344	173.364090
1171.322266	162.933273
1169.619141	165.911987
1167.914063	267.393768
1166.208984	196.040451
1164.503906	177.712936
1162.796875	235.853470
1161.091797	283.912628
1159.384766	184.232483
1157.677734	373.362244
1155.970703	269.756531
1154.263672	381.637604
1152.554688	329.775269
1150.847656	452.283081
1149.138672	482.806885
1147.429688	573.515381
1145.720703	341.191254
1144.009766	210.101654
1142.300781	218.144760
1140.589844	439.822296
1138.878906	218.858322
1137.167969	312.314880
1135.455078	350.473846
1133.744141	286.582550
1132.031250	701.855957
1130.318359	193.167389
1128.605469	270.137329
1126.892578	380.849182
1125.179688	224.775085
1123.464844	318.409454
1121.750000	177.456390
1120.035156	507.667206
1118.320313	536.238586
1116.605469	250.251923
1114.888672	267.669617
1113.171875	346.473816
1111.455078	240.505661
1109.738281	459.483246
1108.021484	131.243805
1106.302734	280.748901
1104.585938	523.493530
1102.867188	450.696686
1101.148438	110.522324
1099.429688	67.348686
1097.708984	108.753670
1095.990234	195.380341
1094.269531	411.543640
1092.548828	142.554810
1090.828125	331.454163
1089.105469	35.451508
1087.384766	336.507965
1085.662109	399.600800
1083.939453	368.534271
1082.216797	272.389648
1080.492188	167.819199
1078.769531	98.273979
1077.044922	268.260773
1075.320313	276.000641
1073.595703	57.817024
1071.871094	267.435608
1070.146484	138.129028
1068.419922	12.008041
1066.693359	395.925446
1064.966797	186.218246
1063.240234	96.953964
1061.513672	298.834839
1059.785156	170.941391
1058.056641	166.267899
1056.328125	145.879868
1054.599609	213.907242
1052.871094	339.927246
1051.140625	171.247955
1049.412109	109.734993
1047.681641	158.286896
1045.951172	72.662064
1044.218750	118.729897
1042.488281	248.672760
1040.755859	270.515747
1039.023438	250.678513
1037.291016	265.667908
1035.558594	337.102112
1033.826172	172.136322
1032.091797	173.301437
1030.357422	54.982925
1028.623047	222.306717
1026.888672	118.801064
1025.154297	185.537231
1023.417969	203.488373
1021.681641	312.341705
1019.945313	247.096207
1018.208984	264.112091
1016.472656	181.984070
1014.734375	186.445877
1012.998047	218.372604
1011.259766	164.195984
1009.521484	241.078461
1007.783203	402.927155
1006.042969	521.793152
1004.302734	307.359802
1002.564453	130.499298
1000.824219	65.971581
999.082031	207.063156
997.341797	35.182999
995.599609	45.906513
993.859375	168.698639
992.117188	-51.321602
990.373047	44.587322
988.630859	294.051453
986.886719	229.546234
985.144531	100.663872
983.400391	80.978104
981.656250	213.371262
979.910156	-26.632553
978.166016	45.866184
976.419922	154.336960
974.673828	251.456390
972.927734	142.531830
971.181641	36.663658
969.433594	-123.343864
967.687500	15.834675
965.939453	80.764282
964.191406	67.153839
962.441406	218.163651
960.693359	131.912857
958.943359	98.764496
957.195313	-37.155060
955.445313	-17.117018
953.693359	87.360184
951.943359	87.644310
950.191406	-141.738205
948.441406	87.234192
946.689453	109.371635
944.935547	145.944733
943.183594	0.005461
941.431641	105.252396
939.677734	43.810390
937.923828	-0.371585
936.169922	176.492279
934.414063	41.406101
932.660156	288.238708
930.904297	183.341553
929.148438	1.715705
927.392578	19.598125
925.636719	-2.260545
923.878906	185.242111
922.123047	266.024353
920.365234	325.601044
918.607422	-57.015709
916.849609	238.850494
915.089844	165.156128
913.330078	57.496929
911.572266	143.181168
909.812500	103.976883
908.050781	3.869376
906.291016	101.239845
904.529297	87.985825
902.767578	-0.387363
901.005859	83.085724
899.244141	163.782639
897.482422	172.203979
895.718750	240.330673
893.957031	247.505508
892.193359	301.601898
890.427734	236.771088
888.664063	217.351456
886.898438	188.164169
885.134766	8.896929
883.369141	304.211029
881.603516	-58.818935
879.835938	63.927299
878.070313	113.068451
876.302734	88.752769
874.535156	89.988106
872.767578	160.601227
871.000000	-76.963898
869.230469	61.712231
867.460938	200.404785
865.693359	64.947273
863.921875	62.513435
862.152344	-2.039982
860.382813	-173.812866
858.611328	8.960376
856.839844	-173.841949
855.068359	-17.822769
853.296875	36.612289
851.523438	-150.058090
849.751953	-8.055038
847.978516	-90.175644
846.205078	-136.961823
844.431641	-58.237179
842.656250	-158.380219
840.880859	-130.231827
839.107422	214.796646
837.332031	-355.478088
835.554688	-120.145103
833.779297	-270.564972
832.001953	-14.143386
830.226563	-42.022274
828.447266	-117.562210
826.669922	-46.821259
824.892578	-53.396397
823.113281	-95.011429
821.333984	-67.702911
819.554688	-149.960434
817.775391	-79.023552
815.996094	-62.852558
814.214844	-55.022682
812.435547	-69.674385
810.654297	-185.284958
808.871094	198.792801
807.089844	210.906631
805.306641	-150.000732
803.525391	-28.372625
801.742188	119.921249
799.958984	-86.454674
798.173828	-135.704391
796.390625	77.047058
794.605469	62.853897
792.820313	24.880535
791.035156	-144.673080
789.248047	76.491058
787.462891	33.001816
785.675781	-123.740845
783.888672	-22.982641
782.101563	132.294754
780.314453	107.129227
778.525391	42.893005
776.736328	47.190006
774.947266	146.522980
773.158203	2.714968
771.369141	191.432800
769.578125	-83.531387
767.789063	214.045258
765.998047	208.628983
764.207031	118.081635
762.414063	196.470718
760.623047	-78.178040
758.830078	29.511681
757.037109	21.413544
755.244141	-2.018454
753.451172	106.972427
751.656250	16.689896
749.863281	-17.882935
748.068359	35.362415
746.271484	151.299820
744.476563	52.705536
742.681641	97.525864
740.884766	-73.351646
739.087891	135.697021
737.291016	42.768551
735.494141	133.455688
733.695313	-62.306259
731.896484	96.509247
730.097656	73.160042
728.298828	-75.263031
726.500000	27.828928
724.701172	-8.044498
722.900391	-16.096622
721.099609	-106.081871
719.298828	56.587730
717.496094	-0.059056
715.695313	7.069874
713.892578	-89.818642
712.089844	129.526123
710.287109	75.587700
708.484375	89.574242
706.679688	-10.073614
704.876953	-95.901779
703.072266	28.911274
701.267578	110.701607
699.460938	-74.789520
697.656250	-19.381001
695.849609	-1.351294
694.042969	157.795105
692.236328	-92.707214
690.429688	40.038513
688.621094	199.018356
686.812500	35.724190
685.005859	-11.466119
683.195313	60.288616
681.386719	-87.782852
679.578125	-18.935711
677.767578	96.853912
675.957031	12.322455
674.146484	78.271065
672.333984	149.721497
670.523438	-1.132383
668.710938	17.789635
666.898438	174.597427
665.085938	-21.753494
663.273438	-71.913101
661.458984	-76.556274
659.644531	-55.058155
657.830078	83.504578
656.015625	144.815018
654.201172	130.299454
652.384766	139.200668
650.570313	95.684921
648.753906	27.413029
646.935547	62.377499
645.119141	62.832970
643.300781	133.435928
641.484375	99.392525
639.666016	21.365801
637.847656	46.415237
636.027344	19.227396
634.208984	46.908485
632.388672	71.826080
630.568359	-230.188507
628.748047	-87.243011
626.925781	67.989441
625.105469	15.804379
623.283203	132.415329
621.460938	71.945061
619.636719	47.155739
617.814453	133.348450
615.990234	2.876761
614.167969	19.022587
612.343750	43.375523
610.517578	-50.119537
608.693359	130.280777
606.867188	-20.826580
605.041016	148.467178
603.214844	28.790819
601.388672	67.866882
599.562500	19.296827
597.734375	17.248207
595.906250	99.940811
594.078125	239.969315
592.250000	50.404911
590.419922	134.273300
588.591797	-22.507357
586.761719	110.407234
584.931641	147.589005
583.099609	198.399261
581.269531	42.918026
579.437500	197.351273
577.605469	20.031080
575.773438	91.054153
573.941406	70.589493
572.107422	167.411072
570.273438	149.593521
568.439453	45.841988
566.605469	251.461258
564.771484	202.119400
562.935547	130.988464
561.101563	243.659180
559.265625	134.302612
557.427734	-36.283482
555.591797	254.529236
553.753906	184.575470
551.917969	143.120590
550.080078	141.118134
548.240234	186.701828
546.402344	149.222534
544.562500	130.777863
542.724609	6.231702
540.884766	122.228210
539.042969	167.520279
537.203125	124.409843
535.361328	117.968315
533.519531	87.035774
531.677734	95.420090
529.835938	35.895905
527.994141	91.658798
526.150391	223.342239
524.306641	83.694931
522.462891	-77.640266
520.619141	99.913071
518.773438	93.070168
516.927734	59.077122
515.082031	-10.176128
513.236328	64.101700
511.390625	-2.523675
509.542969	-48.824722
507.697266	-35.654186
505.849609	32.978786
504.000000	94.806679
502.152344	-88.296234
500.302734	-114.470421
498.455078	-106.931152
496.605469	100.635902
494.753906	-44.595383
492.904297	-72.318352
491.052734	-59.516014
489.203125	-69.772057
487.351563	-5.774854
485.498047	-88.947220
483.646484	-33.174175
481.792969	-50.293964
479.939453	26.970291
478.085938	-69.827454
476.232422	54.498585
474.376953	-4.575507
472.523438	-46.195648
470.667969	-157.874817
468.812500	-9.547649
466.955078	-10.797955
465.099609	100.973991
463.242188	17.476299
461.384766	-2.772325
459.527344	3.853267
457.667969	37.376293
455.810547	120.562149
453.951172	-124.430641
452.091797	117.351471
450.232422	10.823601
448.371094	-4.278557
446.511719	-11.401888
444.650391	-23.903299
442.789063	5.185679
440.927734	-128.259964
439.064453	-17.328241
437.201172	34.449482
435.337891	16.377808
433.474609	66.684166
431.611328	39.125275
429.748047	-76.975784
427.882813	-37.517136
426.017578	-6.168556
424.152344	-16.427351
422.285156	-45.449745
420.419922	-61.156590
418.552734	22.232565
416.685547	-25.679396
414.818359	78.978241
412.949219	10.933489
411.082031	-39.779827
409.212891	66.028000
407.343750	51.365322
405.472656	23.323000
403.603516	56.691158
401.732422	-74.367607
399.861328	1.692298
397.990234	65.637741
396.119141	70.725777
394.246094	54.425453
392.375000	5.990465
390.501953	4.271665
388.628906	61.207432
386.753906	-58.019833
384.880859	-106.602257
383.005859	-124.517006
381.130859	17.504990
379.253906	-68.510658
377.378906	-3.999766
375.501953	-12.833462
373.626953	64.813919
371.748047	-25.382290
369.871094	98.725830
367.994141	-78.160454
366.115234	41.792938
364.236328	73.788467
362.357422	-104.510086
360.478516	57.683559
358.597656	30.928392
356.716797	-34.459236
354.835938	-131.808990
352.955078	49.859451
351.074219	0.175749
349.191406	-45.561310
347.308594	137.039978
345.425781	111.006012
343.542969	-47.864925
341.658203	-64.732887
339.775391	111.978447
337.890625	59.041573
336.005859	6.011996
334.119141	21.872324
332.234375	69.383667
330.347656	-75.395844
328.460938	16.949337
326.574219	-56.477669
324.685547	30.290836
322.798828	-14.249159
320.910156	60.272911
319.021484	35.344109
317.132813	-57.214699
315.242188	157.089172
313.351563	44.422630
311.460938	-36.619389
309.570313	-83.418137
307.679688	-92.034668
305.787109	64.403008
303.896484	18.401615
302.003906	-64.720947
300.111328	32.934624
298.216797	-47.871384
296.322266	-4.755631
294.429688	69.775352
292.535156	58.323235
290.638672	-29.827755
288.744141	-32.466297
286.847656	-14.206954
284.951172	-2.785486
283.054688	50.563892
281.158203	-75.577263
279.259766	33.936531
277.361328	-80.783897
275.462891	49.215584
273.564453	-0.178448
271.666016	62.048351
269.765625	-53.679142
267.865234	-56.505322
265.964844	-28.070673
264.064453	7.924595
262.162109	-10.303738
260.261719	-110.387589
258.359375	-13.604904
256.457031	73.584396
254.552734	76.324020
252.650391	9.056997
250.746094	64.895607
248.841797	134.759537
246.937500	0.754463
245.031250	86.875000
243.126953	-20.339476
241.220703	64.895309
239.314453	-136.221115
237.406250	38.591232
235.500000	20.159166
233.591797	-26.239143
231.683594	137.833572
229.775391	-74.602501
227.865234	60.914917
225.957031	33.475815
224.046875	13.384687
222.136719	-62.213779
220.226563	-6.191278
218.314453	-43.630661
216.402344	-24.100201
214.490234	-44.409897
212.578125	32.714966
210.666016	20.297359
208.751953	21.623884
206.839844	17.046919
204.925781	19.642036
203.009766	-7.176999
201.095703	38.402042
